#Wave		#Intensity
4002.533203	2153.433838
4001.835938	2078.188965
4001.137695	2138.757568
4000.439453	2177.814941
3999.742188	2234.766602
3999.043945	2105.499268
3998.345703	2080.099365
3997.646484	2183.574219
3996.948242	2208.276611
3996.250000	2068.361084
3995.550781	2050.138916
3994.852539	2268.026611
3994.153320	2149.629150
3993.454102	2174.316895
3992.754883	2145.362549
3992.055664	2145.017578
3991.356445	2151.821777
3990.657227	2155.049805
3989.957031	2054.650879
3989.257813	2157.929932
3988.557617	2132.577881
3987.857422	2189.380615
3987.157227	2135.463379
3986.457031	2135.120361
3985.756836	2202.604492
3985.056641	2102.310547
3984.356445	2219.740234
3983.655273	2148.020508
3982.955078	2158.378174
3982.253906	2097.392334
3981.552734	2225.446533
3980.851563	2175.166992
3980.150391	2210.470215
3979.449219	2199.420898
3978.748047	2127.784668
3978.045898	2102.498047
3977.344727	2219.738525
3976.642578	2148.133545
3975.940430	2126.417480
3975.239258	2115.391846
3974.537109	2189.826660
3973.834961	2260.677246
3973.131836	2189.122803
3972.429688	2099.796631
3971.727539	2174.185791
3971.024414	2205.856934
3970.321289	2198.388184
3969.619141	2183.808105
3968.916016	2229.686768
3968.212891	2190.217529
3967.509766	2097.436279
3966.805664	2104.208008
3966.102539	2139.408203
3965.399414	2114.191650
3964.695313	2184.906006
3963.991211	2205.867676
3963.288086	2155.791504
3962.583984	2258.423584
3961.879883	2215.455811
3961.174805	2222.199707
3960.470703	2296.377197
3959.766602	2221.485596
3959.061523	2111.136719
3958.357422	2234.962158
3957.652344	2177.851318
3956.947266	2184.594238
3956.242188	2205.518555
3955.537109	2155.530273
3954.832031	2098.468750
3954.125977	2101.675781
3953.420898	2115.512451
3952.714844	2154.145508
3952.009766	2206.936035
3951.303711	2146.369873
3950.597656	2096.447021
3949.891602	2138.598877
3949.185547	2177.197266
3948.479492	2106.055664
3947.772461	2247.278320
3947.066406	2151.379150
3946.359375	2221.791260
3945.653320	2069.329834
3944.946289	2185.710205
3944.239258	2188.895264
3943.532227	2181.472412
3942.825195	2166.981934
3942.117188	2099.478760
3941.410156	2085.006104
3940.702148	2180.071289
3939.995117	2211.516113
3939.287109	2105.194824
3938.579102	2126.046631
3937.871094	2062.145752
3937.163086	2185.382324
3936.455078	2132.082275
3935.746094	2096.446289
3935.038086	2194.916016
3934.329102	2134.583496
3933.621094	2091.908691
3932.912109	2066.883057
3932.203125	2161.767578
3931.494141	2214.310059
3930.785156	2252.733887
3930.075195	2284.095703
3929.366211	2266.107666
3928.657227	2138.890137
3927.947266	2205.486328
3927.237305	2046.616455
3926.527344	2130.815918
3925.817383	2148.081055
3925.107422	2077.318604
3924.397461	2105.147461
3923.687500	2108.329346
3922.976563	2093.914063
3922.266602	2188.580566
3921.555664	2096.759766
3920.844727	2177.325195
3920.133789	2148.840332
3919.422852	2141.462646
3918.711914	2225.497803
3918.000977	2249.747070
3917.290039	2186.121826
3916.578125	2090.890137
3915.866211	2143.257568
3915.155273	2163.991211
3914.443359	2212.817627
3913.731445	2089.547852
3913.019531	2103.257324
3912.307617	2148.559082
3911.594727	2085.031494
3910.882813	2053.110352
3910.169922	2263.322266
3909.458008	2062.976563
3908.745117	2206.469238
3908.032227	2237.681152
3907.319336	2146.145752
3906.606445	2156.319824
3905.893555	2096.377686
3905.179688	2229.234375
3904.466797	2053.650391
3903.752930	2084.856445
3903.039063	2168.603271
3902.326172	2203.283447
3901.612305	2241.454834
3900.898438	2160.555664
3900.183594	2142.703125
3899.469727	2236.875000
3898.755859	2205.015869
3898.041016	2148.670410
3897.326172	2106.338623
3896.612305	2207.452393
3895.897461	2088.173584
3895.182617	2150.788330
3894.467773	2164.429932
3893.751953	2122.129395
3893.037109	2282.583252
3892.322266	2089.993408
3891.606445	2239.917725
3890.890625	2162.693359
3890.174805	2232.212158
3889.458984	2228.361084
3888.743164	2028.949829
3888.027344	2060.048584
3887.311523	2164.449463
3886.594727	2108.254395
3885.878906	2251.002930
3885.162109	2076.173340
3884.445313	2138.638672
3883.729492	2138.295410
3883.012695	2106.562988
3882.294922	2158.531982
3881.578125	2186.078125
3880.861328	2077.660889
3880.143555	2262.056396
3879.426758	2174.571045
3878.708984	2219.518311
3877.991211	2125.100342
3877.273438	2103.860107
3876.555664	2110.487793
3875.837891	2176.308838
3875.120117	2155.070313
3874.401367	2123.395752
3873.683594	2039.525024
3872.964844	2234.069824
3872.246094	2240.669922
3871.527344	2142.905518
3870.808594	2208.647217
3870.089844	2204.815186
3869.371094	2221.846680
3868.652344	2117.195068
3867.932617	2144.662842
3867.213867	2186.023438
3866.494141	2265.593994
3865.774414	2084.567871
3865.054688	2160.655273
3864.334961	2201.986572
3863.615234	2139.126221
3862.894531	2166.559570
3862.174805	2096.781982
3861.454102	2179.748047
3860.734375	2290.450439
3860.013672	2283.143311
3859.292969	2182.168213
3858.572266	2206.099121
3857.851563	2191.872559
3857.130859	2125.636475
3856.409180	2201.570313
3855.688477	2204.683594
3854.966797	2259.784912
3854.245117	2242.095459
3853.523438	2272.918945
3852.802734	2244.840332
3852.080078	2105.931885
3851.358398	2171.393799
3850.636719	2219.521973
3849.914063	2174.159180
3849.192383	2229.194092
3848.469727	2218.453857
3847.747070	2290.765625
3847.024414	2207.362549
3846.301758	2193.171387
3845.579102	2185.902100
3844.856445	2268.547119
3844.133789	2306.216797
3843.410156	2288.561523
3842.686523	2153.391602
3841.963867	2260.179932
3841.240234	2159.611328
3840.516602	2217.997070
3839.792969	2179.644287
3839.068359	2224.192871
3838.344727	2244.554932
3837.621094	2251.100098
3836.896484	2261.095215
3836.171875	2295.247559
3835.448242	2125.782959
3834.723633	2180.648193
3833.999023	2138.900391
3833.273438	2245.485107
3832.548828	2224.432617
3831.824219	2248.213135
3831.098633	2209.928467
3830.373047	2206.989990
3829.648438	2204.051758
3828.922852	2201.113281
3828.197266	2198.174805
3827.471680	2218.491455
3826.745117	2204.358398
3826.019531	2200.561035
3825.292969	2169.219238
3824.567383	2265.265625
3823.840820	2206.386475
3823.114258	2171.617188
3822.387695	2129.976807
3821.661133	2095.230713
3820.934570	2174.012207
3820.208008	2170.224121
3819.480469	2207.702881
3818.753906	2203.910400
3818.026367	2231.058594
3817.298828	2144.772217
3816.571289	2139.281006
3815.843750	2133.789795
3815.116211	2128.298828
3814.388672	2122.807617
3813.660156	2117.316406
3812.932617	2111.825195
3812.204102	2106.333984
3811.475586	2100.843018
3810.748047	2095.351807
3810.019531	2089.860596
3809.290039	2219.906494
3808.561523	2212.689209
3807.833008	2246.634277
3807.103516	2235.985596
3806.375000	2235.627197
3805.645508	2221.555176
3804.916016	2180.065674
3804.186523	2279.105713
3803.457031	2199.926514
3802.727539	2196.147705
3801.998047	2288.286133
3801.267578	2157.768066
3800.538086	2099.205811
3799.807617	2232.402588
3799.077148	2238.891357
3798.346680	2204.303955
3797.616211	2241.595459
3796.885742	2391.792480
3796.155273	2299.036865
3795.423828	2288.406250
3794.693359	2236.738037
3793.961914	2147.471191
3793.230469	2256.534668
3792.500000	2249.335938
3791.768555	2190.871094
3791.036133	2262.283936
3790.304688	2268.754883
3789.573242	2251.309814
3788.840820	2158.724854
3788.109375	2243.757568
3787.376953	2089.740479
3786.644531	2195.241211
3785.912109	2112.964844
3785.179688	2276.448486
3784.447266	2095.225342
3783.714844	2156.302979
3782.981445	2227.594971
3782.249023	2302.274902
3781.515625	2267.803467
3780.782227	2185.607422
3780.048828	2263.667236
3779.315430	2246.261230
3778.582031	2341.326416
3777.848633	2262.578613
3777.114258	2245.180908
3776.380859	2261.853027
3775.646484	2264.896240
3774.912109	2244.101318
3774.177734	2247.146240
3773.443359	2260.402832
3772.708984	2321.306641
3771.974609	2327.740723
3771.240234	2143.627930
3770.504883	2374.622803
3769.770508	2244.985352
3769.035156	2214.016846
3768.299805	2342.877197
3767.564453	2284.704102
3766.829102	2212.952148
3766.093750	2256.781250
3765.357422	2263.216064
3764.622070	2286.636963
3763.885742	2201.342041
3763.150391	2370.818359
3762.414063	2299.121338
3761.677734	2261.402344
3760.941406	2301.779297
3760.205078	2216.550049
3759.467773	2297.647461
3758.731445	2273.525879
3757.994141	2252.804688
3757.257813	2344.033936
3756.520508	2238.515625
3755.783203	2278.850586
3755.045898	2322.562988
3754.308594	2274.729980
3753.571289	2270.975586
3752.833008	2338.391113
3752.095703	2307.520264
3751.357422	2246.168457
3750.619141	2313.555176
3749.880859	2374.146729
3749.142578	2255.247070
3748.404297	2285.357178
3747.666016	2264.679688
3746.927734	2304.932129
3746.188477	2392.548828
3745.450195	2317.727539
3744.710938	2351.185791
3743.971680	2286.542236
3743.232422	2265.884277
3742.493164	2333.148438
3741.753906	2278.681152
3741.013672	2312.118896
3740.274414	2382.722900
3739.534180	2345.169678
3738.794922	2236.676514
3738.054688	2216.049072
3737.314453	2212.316406
3736.574219	2309.895996
3735.833984	2296.019531
3735.092773	2380.050537
3734.352539	2386.419922
3733.611328	2348.913574
3732.871094	2385.654785
3732.129883	2385.272461
3731.388672	2408.502930
3730.647461	2428.353027
3729.906250	2340.287354
3729.165039	2309.567627
3728.422852	2342.908203
3727.681641	2308.827148
3726.939453	2321.937012
3726.197266	2409.171143
3725.455078	2371.726807
3724.712891	2324.189209
3723.970703	2370.966553
3723.228516	2357.117188
3722.486328	2383.673584
3721.743164	2457.348633
3721.000977	2389.640869
3720.257813	2412.813965
3719.514648	2304.759521
3718.771484	2358.215332
3718.028320	2314.111328
3717.285156	2424.719238
3716.541016	2394.068604
3715.797852	2289.465332
3715.053711	2366.410156
3714.310547	2406.360840
3713.566406	2409.335449
3712.822266	2519.821533
3712.078125	2448.874023
3711.333008	2367.873047
3710.588867	2441.372559
3709.844727	2407.405273
3709.099609	2353.306396
3708.354492	2413.346680
3707.610352	2513.639648
3706.865234	2379.018555
3706.120117	2442.380615
3705.374023	2589.582031
3704.628906	2512.028564
3703.883789	2571.985352
3703.137695	2538.045654
3702.391602	2591.274414
3701.646484	2503.715088
3700.900391	2513.367188
3700.154297	2559.873047
3699.408203	2549.412598
3698.661133	2532.256348
3697.915039	2541.897461
3697.167969	2397.505859
3696.421875	2527.690918
3695.674805	2587.539063
3694.927734	2563.696289
3694.180664	2667.021484
3693.433594	2683.322998
3692.686523	2485.522949
3691.938477	2615.568604
3691.191406	2457.972900
3690.443359	2594.668457
3689.695313	2637.713135
3688.947266	2493.559570
3688.199219	2603.447266
3687.451172	2656.493896
3686.703125	2716.205566
3685.955078	2632.259521
3685.206055	2708.655273
3684.458008	2497.841553
3683.708984	2714.464844
3682.959961	2757.427490
3682.210938	2803.714111
3681.461914	2816.613770
3680.712891	2782.795410
3679.962891	2588.852783
3679.213867	2825.266602
3678.463867	2701.415771
3677.714844	2717.655518
3676.964844	2743.892090
3676.214844	2740.118896
3675.464844	2756.344482
3674.713867	2765.899902
3673.963867	2855.417480
3673.213867	2898.267090
3672.462891	2757.908691
3671.711914	2950.622803
3670.961914	2870.236084
3670.210938	2893.080566
3669.459961	2992.477051
3668.708008	2782.324707
3667.957031	2961.569580
3667.206055	2904.534668
3666.454102	2900.742676
3665.702148	2980.102051
3664.950195	3119.294189
3664.199219	3062.270264
3663.446289	2908.856934
3662.694336	3018.078613
3661.942383	2991.008057
3661.190430	2917.427002
3660.437500	3056.495117
3659.684570	3242.022949
3658.932617	3102.012451
3658.179688	3177.891113
3657.426758	3283.626465
3656.672852	3180.192139
3655.919922	3209.554199
3655.166992	3215.677002
3654.413086	3284.840088
3653.659180	3267.726318
3652.906250	3247.300781
3652.152344	3356.222412
3651.398438	3262.839600
3650.644531	3205.955566
3649.889648	3231.960449
3649.135742	3523.101074
3648.380859	3277.317383
3647.626953	3498.779297
3646.872070	3481.655029
3646.117188	3494.345703
3645.362305	3341.449951
3644.607422	3506.470215
3643.851563	3356.932129
3643.096680	3594.718018
3642.341797	3557.737305
3641.585938	3560.476074
3640.830078	3427.566895
3640.074219	3599.030273
3639.318359	3522.383057
3638.562500	3601.183594
3637.806641	3597.300293
3637.049805	3570.277344
3636.293945	3586.231445
3635.537109	3631.923340
3634.780273	3694.121582
3634.024414	3677.010986
3633.267578	3633.480713
3632.509766	3801.332764
3631.752930	3780.911133
3630.996094	3796.812988
3630.238281	3697.173096
3629.481445	3861.606689
3628.723633	3768.588135
3627.965820	3734.989502
3627.208008	3909.234375
3626.450195	3842.639893
3625.692383	3940.960449
3624.933594	3831.516357
3624.175781	3840.792725
3623.416992	3972.028809
3622.658203	3852.745117
3621.899414	3871.898926
3621.140625	3854.804932
3620.381836	4088.073730
3619.623047	4005.077393
3618.864258	4067.004883
3618.104492	4115.742188
3617.345703	4029.489014
3616.585938	4068.341553
3615.826172	4044.652588
3615.066406	4083.490234
3614.306641	4178.244629
3613.546875	4006.524658
3612.786133	4035.482910
3612.026367	4084.161865
3611.265625	4165.703613
3610.504883	4109.151367
3609.744141	4147.934570
3608.983398	4262.289063
3608.222656	4074.318848
3607.461914	4142.655273
3606.701172	4243.816895
3605.939453	4230.000488
3605.178711	4206.336914
3604.416992	4320.571777
3603.655273	4247.662598
3602.893555	4191.187012
3602.131836	4305.368652
3601.370117	4327.645996
3600.607422	4267.903809
3599.845703	4290.179688
3599.083008	4259.977051
3598.320313	4315.035645
3597.557617	4176.652344
3596.794922	4330.042480
3596.032227	4358.844238
3595.269531	4236.904297
3594.506836	4295.198242
3593.743164	4438.643066
3592.980469	4365.876465
3592.216797	4224.364746
3591.453125	4459.428711
3590.689453	4393.241211
3589.925781	4294.343262
3589.162109	4293.654785
3588.397461	4292.966797
3587.633789	4475.485840
3586.869141	4428.974121
3586.104492	4480.592773
3585.339844	4466.794922
3584.575195	4325.492188
3583.810547	4295.378906
3583.045898	4324.105957
3582.281250	4378.967285
3581.515625	4296.581543
3580.750977	4361.229492
3579.985352	4321.334961
3579.219727	4304.313477
3578.454102	4326.480469
3577.688477	4655.526367
3576.921875	4468.719727
3576.156250	4412.520996
3575.390625	4421.603027
3574.624023	4404.581543
3573.857422	4423.448242
3573.090820	4341.199219
3572.324219	4386.158691
3571.557617	4359.371582
3570.791016	4365.192871
3570.023438	4423.164551
3569.256836	4402.901855
3568.489258	4222.980469
3567.722656	4430.812500
3566.955078	4211.854492
3566.187500	4360.997070
3565.418945	4311.452637
3564.651367	4330.296875
3563.883789	4371.922363
3563.115234	4296.360840
3562.347656	4386.792969
3561.579102	4337.283203
3560.810547	4291.042480
3560.041992	4329.387695
3559.273438	4097.786621
3558.503906	4360.517090
3557.735352	4249.278320
3556.966797	4323.362305
3556.197266	4153.663086
3555.427734	4240.736816
3554.658203	4275.796875
3553.888672	4119.180664
3553.119141	3881.413086
3552.349609	3955.484131
3551.579102	4055.507324
3550.809570	4334.055176
3550.039063	4093.159180
3549.268555	4180.130371
3548.498047	4273.562988
3547.727539	4259.900391
3546.957031	4174.876953
3546.186523	4287.725586
3545.415039	4264.338379
3544.644531	4088.569580
3543.873047	4285.664551
3543.101563	4171.532715
3542.330078	4371.791504
3541.558594	4270.643066
3540.787109	4211.644043
3540.015625	4214.208008
3539.243164	4226.487305
3538.471680	4280.858887
3537.699219	4341.687988
3536.926758	4185.610352
3536.154297	4301.457520
3535.381836	4333.128906
3534.609375	4219.189453
3533.836914	4493.493164
3533.063477	4185.491699
3532.291016	4298.011719
3531.517578	4190.617188
3530.744141	4189.945801
3529.970703	4202.204102
3529.197266	4253.241699
3528.423828	4158.848633
3527.649414	4219.569336
3526.875977	4183.358887
3526.101563	4143.929688
3525.328125	4240.146484
3524.553711	4210.407227
3523.779297	4177.449219
3523.004883	4260.702637
3522.229492	4356.838379
3521.455078	4198.028320
3520.680664	4271.559570
3519.905273	4296.680664
3519.129883	4050.875488
3518.354492	4169.540039
3517.579102	4230.131348
3516.803711	4142.414551
3516.028320	4231.998535
3515.252930	4124.973633
3514.476563	4098.535156
3513.700195	4123.651367
3512.924805	4158.422363
3512.148438	4025.712402
3511.372070	4073.368164
3510.595703	4017.983154
3509.818359	4130.004883
3509.041992	4097.157715
3508.264648	4122.245117
3507.488281	4118.366699
3506.710938	4169.178223
3505.933594	4059.150879
3505.156250	4154.978027
3504.378906	4173.604492
3503.601563	4124.712402
3502.823242	4027.619629
3502.045898	4187.667480
3501.267578	4180.569336
3500.489258	4163.835449
3499.710938	4089.284424
3498.932617	4088.629150
3498.154297	4081.551025
3497.375977	4090.529297
3496.596680	3977.514404
3495.818359	4005.764648
3495.039063	4014.750244
3494.259766	3959.558594
3493.480469	4055.169922
3492.701172	3993.573975
3491.921875	4101.978027
3491.142578	4043.600342
3490.362305	4161.579590
3489.582031	4007.042236
3488.802734	4019.220459
3488.022461	4034.599121
3487.242188	3989.095215
3486.461914	3831.480469
3485.681641	3978.207275
3484.900391	3961.556885
3484.120117	4098.609375
3483.338867	3877.047363
3482.557617	3902.033936
3481.777344	3927.012451
3480.996094	4009.582520
3480.213867	4002.541016
3479.432617	3909.129639
3478.651367	3918.098145
3477.869141	4163.711426
3477.087891	3952.013916
3476.305664	3964.167969
3475.523438	3982.710938
3474.741211	4014.031494
3473.958984	4029.364746
3473.175781	3894.534668
3472.393555	4053.627930
3471.610352	3963.550781
3470.828125	3985.268555
3470.044922	3831.374756
3469.261719	3977.606445
3468.478516	4037.612793
3467.695313	3893.358154
3466.911133	3950.167725
3466.127930	3943.154053
3465.343750	4019.075684
3464.560547	3868.537598
3463.776367	3791.388184
3462.992188	3870.485596
3462.208008	3850.738770
3461.423828	3767.254639
3460.638672	3976.971436
3459.854492	3797.908691
3459.069336	3880.126709
3458.285156	3854.023682
3457.500000	3952.129395
3456.714844	4015.178223
3455.929688	3890.373779
3455.143555	3953.412109
3454.358398	3876.395996
3453.572266	3863.046387
3452.787109	3945.147949
3452.000977	3912.704834
3451.214844	3800.758301
3450.428711	3854.209473
3449.642578	3786.821533
3448.856445	3763.961182
3448.069336	3715.680176
3447.283203	3928.010742
3446.496094	3746.263916
3445.708984	3704.362305
3444.921875	3694.239014
3444.134766	3674.591064
3443.347656	3689.879150
3442.560547	3905.184082
3441.772461	3790.278076
3440.985352	3853.148926
3440.197266	3814.450195
3439.409180	3893.161377
3438.621094	3676.813965
3437.833008	3717.458984
3437.044922	3720.034424
3436.256836	3916.032227
3435.467773	3725.182373
3434.679688	3683.376953
3433.890625	3765.189453
3433.101563	3758.248047
3432.312500	3798.833984
3431.523438	3696.854492
3430.734375	3734.269531
3429.944336	3689.335449
3429.155273	3625.417725
3428.365234	3678.655029
3427.575195	3754.032227
3426.785156	3756.594971
3425.995117	3699.035645
3425.205078	3723.752686
3424.415039	3685.196533
3423.624023	3678.280273
3422.833984	3813.666992
3422.042969	3718.203369
3421.251953	3793.476563
3420.460938	3713.850342
3419.669922	3511.000977
3418.878906	3652.625000
3418.087891	3655.198486
3417.295898	3594.597168
3416.504883	3672.975342
3415.712891	3530.290771
3414.920898	3674.954834
3414.128906	3718.558838
3413.336914	3676.932373
3412.544922	3692.121094
3411.752930	3637.891602
3410.959961	3703.555664
3410.166992	3415.935059
3409.375000	3604.605469
3408.582031	3559.883545
