#Wave		#Intensity
4002.533203	4106.214844
4001.835938	4102.631836
4001.137695	4091.224609
4000.439453	3979.527100
3999.742188	4204.512695
3999.043945	4200.256348
3998.345703	4077.854004
3997.646484	4037.822510
3996.948242	4180.335449
3996.250000	4047.260010
3995.550781	3989.363037
3994.852539	4135.392090
3994.153320	4263.490723
3993.454102	4155.520020
3992.754883	4169.154297
3992.055664	4200.659668
3991.356445	4178.537598
3990.657227	4113.536133
3989.957031	4066.422119
3989.257813	4108.641113
3988.557617	4111.553223
3987.857422	4007.316406
3987.157227	4081.663574
3986.457031	4163.127441
3985.756836	4191.017090
3985.056641	4115.388672
3984.356445	4046.921875
3983.655273	4171.156250
3982.955078	4002.810303
3982.253906	4109.176758
3981.552734	3997.957520
3980.851563	4136.382813
3980.150391	4199.893066
3979.449219	4192.088867
3978.748047	4113.004395
3978.045898	4033.945313
3977.344727	4175.816406
3976.642578	4253.518555
3975.940430	4049.810059
3975.239258	4027.791748
3974.537109	4002.219727
3973.834961	4222.304199
3973.131836	3943.980713
3972.429688	3982.495850
3971.727539	4049.465576
3971.024414	4063.046387
3970.321289	4169.111328
3969.619141	4221.791992
3968.916016	4075.312744
3968.212891	4071.102295
3967.509766	4052.673340
3966.805664	4094.675049
3966.102539	4118.894043
3965.399414	4256.809570
3964.695313	3996.779053
3963.991211	4045.866699
3963.288086	4134.005371
3962.583984	3920.282471
3961.879883	4086.521973
3961.174805	4167.511719
3960.470703	4152.645020
3959.766602	4144.880859
3959.061523	4133.570313
3958.357422	4033.574707
3957.652344	4121.601563
3956.947266	4092.567871
3956.242188	4184.102539
3955.537109	4116.070313
3954.832031	4062.238281
3954.125977	4022.600342
3953.420898	4075.107666
3952.714844	4124.055176
3952.009766	4134.020020
3951.303711	4076.686035
3950.597656	4270.802246
3949.891602	4156.812988
3949.185547	4117.203613
3948.479492	4201.492676
3947.772461	4161.888672
3947.066406	4277.988770
3946.359375	4135.786621
3945.653320	4142.196777
3944.946289	4173.362305
3944.239258	4133.793945
3943.532227	4094.238281
3942.825195	4033.485107
3942.117188	4156.543945
3941.410156	4071.062500
3940.702148	4172.875488
3939.995117	4126.279297
3939.287109	4093.826904
3938.579102	4011.941650
3937.871094	4166.664551
3937.163086	4060.080322
3936.455078	4239.455078
3935.746094	4157.598633
3935.038086	4107.527832
3934.329102	4258.582520
3933.621094	4123.846680
3932.912109	4098.495117
3932.203125	4154.261230
3931.494141	4241.743652
3930.785156	4085.944580
3930.075195	4131.111328
3929.366211	4010.622803
3928.657227	4150.926758
3927.947266	4100.936523
3927.237305	4012.213623
3926.527344	3993.959229
3925.817383	4176.433105
3925.107422	4101.824219
3924.397461	3977.954346
3923.687500	4220.178223
3922.976563	4071.695068
3922.266602	4130.857910
3921.555664	4031.688965
3920.844727	4055.664063
3920.133789	4012.809814
3919.422852	4075.459961
3918.711914	4036.131836
3918.000977	4060.090576
3917.290039	4154.334473
3916.578125	4051.758545
3915.866211	4019.486328
3915.155273	4173.411621
3914.443359	4077.906738
3913.731445	4073.740234
3913.019531	4059.041016
3912.307617	4051.367920
3911.594727	4036.677002
3910.882813	4053.576904
3910.169922	4158.196777
3909.458008	4178.580078
3908.745117	4125.291016
3908.032227	3977.320313
3907.319336	4173.061035
3906.606445	4116.291992
3905.893555	4020.978760
3905.179688	4069.404297
3904.466797	3960.110840
3903.752930	4057.586182
3903.039063	4176.050293
3902.326172	4129.843262
3901.612305	3908.536865
3900.898438	3935.923096
3900.183594	4215.383301
3899.469727	4067.682129
3898.755859	4140.529785
3898.041016	4097.871582
3897.326172	4069.222412
3896.612305	3963.619141
3895.897461	4218.320801
3895.182617	4018.302246
3894.467773	4188.993652
3893.751953	4195.313477
3893.037109	4142.207031
3892.322266	4162.511719
3891.606445	4189.799316
3890.890625	4150.694336
3890.174805	4153.521484
3889.458984	4103.956543
3888.743164	4113.774414
3888.027344	4148.030273
3887.311523	4210.203125
3886.594727	4101.322266
3885.878906	3908.718262
3885.162109	4187.240234
3884.445313	4134.236328
3883.729492	4060.319580
3883.012695	4115.470703
3882.294922	4121.784668
3881.578125	4072.311279
3880.861328	4082.115723
3880.143555	4029.178955
3879.426758	3972.773926
3878.708984	4108.025391
3877.991211	4110.850098
3877.273438	4054.458740
3876.555664	4186.148926
3875.837891	4101.906738
3875.120117	4139.545410
3874.401367	4131.919434
3873.683594	4054.687012
3872.964844	4147.992676
3872.246094	4126.451172
3871.527344	4073.607910
3870.808594	4031.216064
3870.089844	4065.345459
3869.371094	4116.849121
3868.652344	4178.765625
3867.932617	4178.095215
3867.213867	4114.867676
3866.494141	4169.804688
3865.774414	4099.650391
3865.054688	4109.413574
3864.334961	4195.583496
3863.615234	4066.423584
3862.894531	4208.125000
3862.174805	4019.989258
3861.454102	4151.239746
3860.734375	4240.803711
3860.013672	4139.498535
3859.292969	4204.750488
3858.572266	4051.452393
3857.851563	4192.996582
3857.130859	4157.647949
3856.409180	4115.376465
3855.688477	4201.378418
3854.966797	3951.157471
3854.245117	4096.069336
3853.523438	4102.341797
3852.802734	4067.040771
3852.080078	4194.545410
3851.358398	4231.967285
3850.636719	4227.825684
3849.914063	4064.431641
3849.192383	4333.774902
3848.469727	4142.729004
3847.747070	4197.430176
3847.024414	4203.676270
3846.301758	4085.387207
3845.579102	4150.447266
3844.856445	4225.860840
3844.133789	4270.131348
3843.410156	4127.708008
3842.686523	4071.741943
3841.963867	3984.690430
3841.240234	4236.293945
3840.516602	4104.331055
3839.792969	4155.486328
3839.068359	4134.097656
3838.344727	3991.854736
3837.621094	4181.107910
3836.896484	4045.807129
3836.171875	4200.475586
3835.448242	4134.233887
3834.723633	4230.181641
3833.999023	4126.007813
3833.273438	4039.114014
3832.548828	4348.852051
3831.824219	4172.297363
3831.098633	4147.494629
3830.373047	4139.935059
3829.648438	4111.699219
3828.922852	4341.919434
3828.197266	4100.043945
3827.471680	4044.268311
3826.745117	4115.950195
3826.019531	4204.827637
3825.292969	4049.208984
3824.567383	4117.412598
3823.840820	4154.615234
3823.114258	3964.663818
3822.387695	4032.847900
3821.661133	4138.854980
3820.934570	4141.630859
3820.208008	4037.786377
3819.480469	4040.577637
3818.753906	4143.076660
3818.026367	4111.473145
3817.298828	4066.130859
3816.571289	4226.998047
3815.843750	4136.983398
3815.116211	4146.626465
3814.388672	4125.351563
3813.660156	4148.730957
3812.932617	4237.344727
3812.204102	4082.167725
3811.475586	3954.502197
3810.748047	4173.527344
3810.019531	4073.340820
3809.290039	4038.376953
3808.561523	4130.353516
3807.833008	4232.590332
3807.103516	4077.587402
3806.375000	4138.653320
3805.645508	4134.561035
3804.916016	4199.025879
3804.186523	4023.563965
3803.457031	4173.692383
3802.727539	4316.920410
3801.998047	4206.609863
3801.267578	4137.434570
3800.538086	4088.828369
3799.807617	4129.259766
3799.077148	4108.057617
3798.346680	4220.352051
3797.616211	4137.540527
3796.885742	4171.094238
3796.155273	4173.846680
3795.423828	4077.399658
3794.693359	4179.348145
3793.961914	4240.229980
3793.230469	4106.209473
3792.500000	4026.926758
3791.768555	4238.190430
3791.036133	4093.982178
3790.304688	4106.993164
3789.573242	4137.080566
3788.840820	4197.899902
3788.109375	4145.999512
3787.376953	4162.407715
3786.644531	4113.943359
3785.912109	4167.899902
3785.179688	4109.211426
3784.447266	4204.100098
3783.714844	4240.956543
3782.981445	4124.291504
3782.249023	4188.435059
3781.515625	4085.456543
3780.782227	4105.259766
3780.048828	4240.966797
3779.315430	4100.534668
3778.582031	4055.572754
3777.848633	4092.404785
3777.114258	4081.527832
3776.380859	4169.439941
3775.646484	4131.307129
3774.912109	4096.591309
3774.177734	4194.672852
3773.443359	4040.810547
3772.708984	4196.731445
3771.974609	4117.786621
3771.240234	4181.775879
3770.504883	4252.547852
3769.770508	4221.252930
3769.035156	4050.528564
3768.299805	4247.102539
3767.564453	4236.222168
3766.829102	4252.539551
3766.093750	4258.655273
3765.357422	4203.601074
3764.622070	4141.768555
3763.885742	4331.344238
3763.150391	4255.924805
3762.414063	4207.697754
3761.677734	4281.724121
3760.941406	4233.508301
3760.205078	4236.224121
3759.467773	4272.877441
3758.731445	4180.572754
3757.994141	4227.401367
3757.257813	4148.702637
3756.520508	4256.571289
3755.783203	4188.065918
3755.045898	4295.894043
3754.308594	4295.205078
3753.571289	4182.662598
3752.833008	4226.048828
3752.095703	4269.420898
3751.357422	4146.772461
3750.619141	4329.024414
3749.880859	4338.490723
3749.142578	4209.117676
3748.404297	4242.299805
3747.666016	4231.464355
3746.927734	4298.478516
3746.188477	4291.021484
3745.450195	4286.949707
3744.710938	4279.496582
3743.971680	4400.579102
3743.232422	4315.325684
3742.493164	4277.438965
3741.753906	4198.994141
3741.013672	4198.320801
3740.274414	4332.837891
3739.534180	4362.556152
3738.794922	4223.331543
3738.054688	4280.082520
3737.314453	4238.865723
3736.574219	4298.972656
3735.833984	4335.425293
3735.092773	4327.978516
3734.352539	4340.786133
3733.611328	4441.336914
3732.871094	4278.656738
3732.129883	4277.970703
3731.388672	4405.468750
3730.647461	4492.453125
3729.906250	4208.470703
3729.165039	4406.722168
3728.422852	4395.902832
3727.681641	4412.050781
3726.939453	4488.854004
3726.197266	4306.183105
3725.455078	4369.502441
3724.712891	4422.696289
3723.970703	4421.987305
3723.228516	4333.728516
3722.486328	4359.967773
3721.743164	4352.536621
3721.000977	4462.906738
3720.257813	4509.303711
3719.514648	4357.173340
3718.771484	4390.115723
3718.028320	4342.322266
3717.285156	4267.640625
3716.541016	4377.917480
3715.797852	4394.025391
3715.053711	4322.731934
3714.310547	4510.246094
3713.566406	4381.832031
3712.822266	4471.843262
3712.078125	4501.359375
3711.333008	4527.507324
3710.588867	4499.916504
3709.844727	4479.049805
3709.099609	4525.330566
3708.354492	4581.666504
3707.610352	4540.660156
3706.865234	4516.444336
3706.120117	4525.785156
3705.374023	4602.210449
3704.628906	4450.549805
3703.883789	4513.549316
3703.137695	4512.826172
3702.391602	4491.989258
3701.646484	4464.456055
3700.900391	4503.954102
3700.154297	4456.323730
3699.408203	4549.411621
3698.661133	4528.585449
3697.915039	4695.310059
3697.167969	4734.739258
3696.421875	4536.452148
3695.674805	4575.893555
3694.927734	4622.016602
3694.180664	4671.470703
3693.433594	4684.104980
3692.686523	4666.627930
3691.938477	4729.429688
3691.191406	4732.016113
3690.443359	4724.570313
3689.695313	4666.979980
3688.947266	4759.824219
3688.199219	4785.797852
3687.451172	4627.979980
3686.703125	4817.673340
3685.955078	4940.497559
3685.206055	4735.971680
3684.458008	4725.194824
3683.708984	4851.312988
3682.959961	4860.550293
3682.210938	4923.188477
3681.461914	4912.387695
3680.712891	4811.500000
3679.962891	4767.358887
3679.213867	4819.964844
3678.463867	4852.542969
3677.714844	4748.394531
3676.964844	4814.313965
3676.214844	4970.215820
3675.464844	5066.074707
3674.713867	5058.597656
3673.963867	5034.463867
3673.213867	5110.277832
3672.462891	5036.181152
3671.711914	5128.622070
3670.961914	5174.416504
3670.210938	5170.257813
3669.459961	5132.813965
3668.708008	5135.319336
3667.957031	5167.772461
3667.206055	5156.962891
3666.454102	5315.810547
3665.702148	5271.720703
3664.950195	5254.248535
3664.199219	5270.030762
3663.446289	5395.513672
3662.694336	5364.734375
3661.942383	5400.431152
3661.190430	5399.565918
3660.437500	5269.131836
3659.684570	5474.235352
3658.932617	5533.140137
3658.179688	5552.177246
3657.426758	5428.442383
3656.672852	5640.027832
3655.919922	5503.041504
3655.166992	5495.522461
3654.413086	5468.097656
3653.659180	5775.747559
3652.906250	5751.603516
3652.152344	5750.681641
3651.398438	5729.864746
3650.644531	5781.992188
3649.889648	5850.677246
3649.135742	5879.568359
3648.380859	6014.490723
3647.626953	5814.732422
3646.872070	6052.315430
3646.117188	5918.858398
3645.362305	6030.505859
3644.607422	6059.339844
3643.851563	6260.314453
3643.096680	6113.668457
3642.341797	6165.641113
3641.585938	6356.574707
3640.830078	6239.759766
3640.074219	6347.921875
3639.318359	6155.075195
3638.562500	6375.649414
3637.806641	6272.130859
3637.049805	6499.227051
3636.293945	6412.248047
3635.537109	6510.362793
3634.780273	6585.316895
3634.024414	6521.491211
3633.267578	6546.871582
3632.509766	6301.427246
3631.752930	6647.138672
3630.996094	6586.645020
3630.238281	6545.977051
3629.481445	6693.451660
3628.723633	6698.979004
3627.965820	6694.605957
3627.208008	6637.451172
3626.450195	6794.710938
3625.692383	6783.728516
3624.933594	6838.696289
3624.175781	6943.098633
3623.416992	7014.504395
3622.658203	6901.324219
3621.899414	6778.294434
3621.140625	7011.132324
3620.381836	6792.593262
3619.623047	7157.099609
3618.864258	6925.434570
3618.104492	7072.491211
3617.345703	7094.402344
3616.585938	7280.883301
3615.826172	7036.181641
3615.066406	7258.807129
3614.306641	7205.004395
3613.546875	7276.217285
3612.786133	7222.428711
3612.026367	7109.466797
3611.265625	7259.568359
3610.504883	7327.438965
3609.744141	7454.449707
3608.983398	7354.666992
3608.222656	7264.773438
3607.461914	7280.035156
3606.701172	7354.416504
3605.939453	7507.593750
3605.178711	7440.717773
3604.416992	7288.502441
3603.655273	7582.767090
3602.893555	7394.474609
3602.131836	7517.987793
3601.370117	7602.089355
3600.607422	7413.883789
3599.845703	7458.614746
3599.083008	7388.551758
3598.320313	7485.734863
3597.557617	7674.681152
3596.794922	7457.112793
3596.032227	7570.624512
3595.269531	7533.366211
3594.506836	7430.594727
3593.743164	7776.633301
3592.980469	7650.928711
3592.216797	7528.538574
3591.453125	7763.072754
3590.689453	7683.261230
3589.925781	7452.911133
3589.162109	7782.249512
3588.397461	7637.031250
3587.633789	7701.238281
3586.869141	7556.078613
3586.104492	7600.655273
3585.339844	7779.286133
3584.575195	7676.686035
3583.810547	7672.187012
3583.045898	7765.741699
3582.281250	7656.656738
3581.515625	7534.537598
3580.750977	7615.000977
3579.985352	7705.237305
3579.219727	7939.139648
3578.454102	7650.523926
3577.688477	7877.830078
3576.921875	7703.563965
3576.156250	7790.449219
3575.390625	7776.147949
3574.624023	7804.265625
3573.857422	7796.490723
3573.090820	7788.718262
3572.324219	7575.499512
3571.557617	7932.947266
3570.791016	7739.333496
3570.023438	7891.290527
3569.256836	7749.889160
3568.489258	7657.410156
3567.722656	7806.048828
3566.955078	7746.164063
3566.187500	7836.116211
3565.418945	7896.731445
3564.651367	7807.558105
3563.883789	7916.988281
3563.115234	7941.758301
3562.347656	7836.347656
3561.579102	7906.675293
3560.810547	7775.277832
3560.041992	7790.295410
3559.273438	7805.308105
3558.503906	7768.288574
3557.735352	7942.606934
3556.966797	7986.843262
3556.197266	7654.050293
3555.427734	7740.562988
3554.658203	7716.578613
3553.888672	7650.371094
3553.119141	7697.865723
3552.349609	7680.394043
3551.579102	7601.235352
3550.809570	7820.777832
3550.039063	7787.064941
3549.268555	8068.170410
3548.498047	7690.466797
3547.727539	7760.610840
3546.957031	7733.416016
3546.186523	7907.318359
3545.415039	7773.094727
3544.644531	7823.726074
3543.873047	7806.263184
3543.101563	7950.870117
3542.330078	7709.779297
3541.558594	7857.594727
3540.787109	7927.609375
3540.015625	7906.903809
3539.243164	7905.636719
3538.471680	7881.702637
3537.699219	7906.340332
3536.926758	7833.856445
3536.154297	7716.083008
3535.381836	7989.914551
3534.609375	7813.912598
3533.836914	7935.592773
3533.063477	7986.073242
3532.291016	7997.729492
3531.517578	7986.747559
3530.744141	7810.886230
3529.970703	7793.472168
3529.197266	7714.656250
3528.423828	7674.643066
3527.649414	7831.727539
3526.875977	7630.187988
3526.101563	7819.527832
3525.328125	7815.044922
3524.553711	7684.639160
3523.779297	7760.887207
3523.004883	7846.793945
3522.229492	7845.536621
3521.455078	7653.899414
3520.680664	7749.460449
3519.905273	7728.864258
3519.129883	7792.129883
3518.354492	7587.724609
3517.579102	7709.027344
3516.803711	7620.752930
3516.028320	7616.308594
3515.252930	7660.204590
3514.476563	7687.976074
3513.700195	7728.624512
3512.924805	7746.712402
3512.148438	7645.633301
3511.372070	7769.989746
3510.595703	7620.645996
3509.818359	7551.824707
3509.041992	7692.229004
3508.264648	7591.238281
3507.488281	7593.238770
3506.710938	7656.361328
3505.933594	7732.328613
3505.156250	7686.066406
3504.378906	7681.619141
3503.601563	7628.949219
3502.823242	7688.799805
3502.045898	7652.214844
3501.267578	7625.281738
3500.489258	7453.779297
3499.710938	7478.283203
3498.932617	7647.310059
3498.154297	7687.831055
3497.375977	7561.378906
3496.596680	7483.120605
3495.818359	7619.939941
3495.039063	7750.297363
3494.259766	7473.105469
3493.480469	7494.364746
3492.701172	7634.301758
3491.921875	7613.835449
3491.142578	7593.375000
3490.362305	7338.872070
3489.582031	7446.687500
3488.802734	7538.442383
3488.022461	7630.167480
3487.242188	7507.188965
3486.461914	7323.381348
3485.681641	7456.736328
3484.900391	7705.340332
3484.120117	7454.346191
3483.338867	7446.748047
3482.557617	7535.182617
3481.777344	7450.762207
3480.996094	7449.567871
3480.213867	7451.573242
3479.432617	7344.812988
3478.651367	7276.468262
3477.869141	7342.458496
3477.087891	7347.676270
3476.305664	7420.027344
3475.523438	7431.623535
3474.741211	7312.184570
3473.958984	7483.562500
3473.175781	7539.870605
3472.393555	7391.721680
3471.610352	7390.537109
3470.828125	7437.251953
3470.044922	7244.491211
3469.261719	7240.137695
3468.478516	7251.744141
3467.695313	7314.407227
3466.911133	7396.194336
3466.127930	7487.526367
3465.343750	7361.925781
3464.560547	7255.500977
3463.776367	7279.847656
3462.992188	7262.739746
3462.208008	7213.759766
3461.423828	7266.785645
3460.638672	7268.807617
3459.854492	7299.503906
3459.069336	7190.021484
3458.285156	7179.313477
3457.500000	7152.685547
3456.714844	7167.459473
3455.929688	7163.126465
3455.143555	7123.781250
3454.358398	7240.395020
3453.572266	7385.609863
3452.787109	6942.187500
3452.000977	7112.852051
3451.214844	7114.892090
3450.428711	7132.831543
3449.642578	7118.970215
3448.856445	7108.291992
3448.069336	7030.867676
3447.283203	7169.572754
3446.496094	7174.778320
3445.708984	6992.540039
3444.921875	6873.889648
3444.134766	7123.688477
3443.347656	6963.773926
3442.560547	7121.404785
3441.772461	7012.332031
3440.985352	7093.729980
3440.197266	6892.666992
3439.409180	7050.207520
3438.621094	6884.112305
3437.833008	7133.588379
3437.044922	7100.730469
3436.256836	7131.300781
3435.467773	7028.706055
3434.679688	6881.765137
3433.890625	6912.355469
3433.101563	7082.364746
3432.312500	6865.782227
3431.523438	6975.555664
3430.734375	6901.588867
3429.944336	6865.647461
3429.155273	6988.032227
3428.365234	6983.746094
3427.575195	6950.973633
3426.785156	6937.199707
3425.995117	7002.537109
3425.205078	6865.372559
3424.415039	7012.944824
3423.624023	6815.729980
3422.833984	6972.749023
3422.042969	6819.867676
3421.251953	6739.743652
3420.460938	6631.198242
3419.669922	6942.996582
3418.878906	6824.973633
3418.087891	6833.356934
3417.295898	6746.976563
3416.504883	6894.329590
3415.712891	6814.282227
3414.920898	6633.230469
3414.128906	6783.687012
3413.336914	6687.914063
3412.544922	6677.374512
3411.752930	6638.441895
3410.959961	6782.491211
3410.166992	6658.392090
3409.375000	6739.318848
3408.582031	6684.635254
