#Wave		#Intensity
4002.533203	3239.108398
4001.835938	3289.271484
4001.137695	3213.510010
4000.439453	3119.863281
3999.742188	3248.290527
3999.043945	3498.423096
3998.345703	3322.430664
3997.646484	3397.068848
3996.948242	3357.153076
3996.250000	3220.631348
3995.550781	3259.470459
3994.852539	3205.286621
3994.153320	3294.190186
3993.454102	3390.217529
3992.754883	3225.194824
3992.055664	3292.602051
3991.356445	3374.285400
3990.657227	3302.265381
3989.957031	3223.121826
3989.257813	3176.158447
3988.557617	3318.534180
3987.857422	3239.426025
3987.157227	3385.316650
3986.457031	3277.659668
3985.756836	3377.088867
3985.056641	3194.512451
3984.356445	3347.453857
3983.655273	3271.984863
3982.955078	3339.242920
3982.253906	3338.706299
3981.552734	3184.813477
3980.851563	3280.579590
3980.150391	3240.834473
3979.449219	3236.749023
3978.748047	3311.075439
3978.045898	3257.090088
3977.344727	3349.204346
3976.642578	3206.169678
3975.940430	3316.071533
3975.239258	3297.732178
3974.537109	3347.052002
3973.834961	3285.992188
3973.131836	3249.868652
3972.429688	3437.972168
3971.727539	3234.590820
3971.024414	3276.765137
3970.321289	3439.872559
3969.619141	3318.392334
3968.916016	3282.298096
3968.212891	3370.659424
3967.509766	3423.442383
3966.805664	3334.032227
3966.102539	3393.911865
3965.399414	3244.129395
3964.695313	3254.266357
3963.991211	3164.940430
3963.288086	3310.045654
3962.583984	3234.943115
3961.879883	3284.129150
3961.174805	3336.849365
3960.470703	3332.763916
3959.766602	3119.306641
3959.061523	3402.655762
3958.357422	3331.157959
3957.652344	3263.229980
3956.947266	3358.459229
3956.242188	3382.740479
3955.537109	3272.293457
3954.832031	3275.312500
3954.125977	3331.492676
3953.420898	3291.978271
3952.714844	3280.820557
3952.009766	3298.005615
3951.303711	3279.766602
3950.597656	3424.432861
3949.891602	3200.816895
3949.185547	3398.551758
3948.479492	3429.862061
3947.772461	3340.835693
3947.066406	3347.375977
3946.359375	3258.391357
3945.653320	3201.270752
3944.946289	3257.344727
3944.239258	3278.038574
3943.532227	3136.087646
3942.825195	3347.686523
3942.117188	3279.993896
3941.410156	3290.068848
3940.702148	3353.140625
3939.995117	3394.995361
3939.287109	3337.934814
3938.579102	3132.563721
3937.871094	3266.241211
3937.163086	3283.369141
3936.455078	3314.611328
3935.746094	3299.961670
3935.038086	3260.614746
3934.329102	3408.277100
3933.621094	3372.453125
3932.912109	3220.246094
3932.203125	3385.476074
3931.494141	3423.718262
3930.785156	3197.542480
3930.075195	3295.724609
3929.366211	3228.234131
3928.657227	3270.000244
3927.947266	3237.766846
3927.237305	3205.543701
3926.527344	3271.947266
3925.817383	3320.722168
3925.107422	3344.834961
3924.397461	3266.851074
3923.687500	3354.320313
3922.976563	3385.454346
3922.266602	3335.649902
3921.555664	3321.042236
3920.844727	3362.718750
3920.133789	3291.840576
3919.422852	3358.122803
3918.711914	3283.751953
3918.000977	3297.285645
3917.290039	3286.212158
3916.578125	3152.148682
3915.866211	3281.643555
3915.155273	3351.376221
3914.443359	3340.300781
3913.731445	3262.503906
3913.019531	3304.115479
3912.307617	3415.927979
3911.594727	3341.666504
3910.882813	3344.639648
3910.169922	3361.647705
3909.458008	3350.582764
3908.745117	3336.013184
3908.032227	3454.727051
3907.319336	3296.367676
3906.606445	3302.850830
3905.893555	3361.916748
3905.179688	3224.678711
3904.466797	3171.593262
3903.752930	3307.738525
3903.039063	3328.228027
3902.326172	3359.219238
3901.612305	3330.661865
3900.898438	3274.099854
3900.183594	3308.585693
3899.469727	3357.062988
3898.755859	3272.523438
3898.041016	3383.980957
3897.326172	3344.949951
3896.612305	3323.422852
3895.897461	3305.400635
3895.182617	3304.870117
3894.467773	3360.286133
3893.751953	3359.746582
3893.037109	3208.899414
3892.322266	3257.313965
3891.606445	3228.835938
3890.890625	3273.737793
3890.174805	3500.276123
3889.458984	3433.352539
3888.743164	3247.716553
3888.027344	3317.027588
3887.311523	3396.789307
3886.594727	3350.867676
3885.878906	3462.007568
3885.162109	3321.877197
3884.445313	3415.541992
3883.729492	3306.858154
3883.012695	3330.741211
3882.294922	3284.874023
3881.578125	3368.024414
3880.861328	3283.819824
3880.143555	3248.438232
3879.426758	3244.432129
3878.708984	3344.957031
3877.991211	3271.260986
3877.273438	3263.769775
3876.555664	3301.555176
3875.837891	3363.702881
3875.120117	3404.941650
3874.401367	3400.914307
3873.683594	3302.916748
3872.964844	3410.262451
3872.246094	3423.632324
3871.527344	3346.550781
3870.808594	3398.186523
3870.089844	3362.864990
3869.371094	3348.416992
3868.652344	3316.591064
3867.932617	3364.722168
3867.213867	3339.854492
3866.494141	3377.541992
3865.774414	3345.731445
3865.054688	3293.088867
3864.334961	3209.204346
3863.615234	3118.401611
3862.894531	3263.727539
3862.174805	3270.146729
3861.454102	3398.046631
3860.734375	3380.149658
3860.013672	3313.680664
3859.292969	3257.640625
3858.572266	3323.023438
3857.851563	3232.318359
3857.130859	3276.878662
3856.409180	3293.687988
3855.688477	3296.625977
3854.966797	3368.881592
3854.245117	3233.191650
3853.523438	3305.434082
3852.802734	3280.653809
3852.080078	3484.486084
3851.358398	3335.011719
3850.636719	3331.014160
3849.914063	3295.859375
3849.192383	3361.098633
3848.469727	3315.567383
3847.747070	3187.001709
3847.024414	3169.191406
3846.301758	3279.379395
3845.579102	3420.660156
3844.856445	3371.697266
3844.133789	3191.361572
3843.410156	3329.131104
3842.686523	3380.444336
3841.963867	3252.032715
3841.240234	3292.975586
3840.516602	3392.637207
3839.792969	3243.559326
3839.068359	3395.002441
3838.344727	3283.956787
3837.621094	3407.723877
3836.896484	3362.300537
3836.171875	3268.570557
3835.448242	3340.516113
3834.723633	3250.270020
3833.999023	3208.350586
3833.273438	3238.879639
3832.548828	3310.783447
3831.824219	3182.669678
3831.098633	3478.655029
3830.373047	3191.989990
3829.648438	3367.250488
3828.922852	3328.804932
3828.197266	3242.135498
3827.471680	3313.957520
3826.745117	3382.312256
3826.019531	3371.438477
3825.292969	3364.011230
3824.567383	3384.127686
3823.840820	3232.132324
3823.114258	3355.509766
3822.387695	3324.002686
3821.661133	3285.624512
3820.934570	3240.378906
3820.208008	3332.721436
3819.480469	3266.849854
3818.753906	3438.237793
3818.026367	3286.428223
3817.298828	3378.703857
3816.571289	3347.232666
3815.843750	3168.022217
3815.116211	3335.852783
3814.388672	3273.489014
3813.660156	3321.045166
3812.932617	3396.056885
3812.204102	3237.581299
3811.475586	3319.447510
3810.748047	3466.498779
3810.019531	3345.835938
3809.290039	3403.627686
3808.561523	3310.457764
3807.833008	3303.066895
3807.103516	3227.089844
3806.375000	3449.449219
3805.645508	3284.336426
3804.916016	3379.787354
3804.186523	3290.137451
3803.457031	3351.290039
3802.727539	3347.326416
3801.998047	3288.554932
3801.267578	3284.602539
3800.538086	3308.047119
3799.807617	3338.332031
3799.077148	3330.949951
3798.346680	3340.684326
3797.616211	3353.837646
3796.885742	3401.204102
3796.155273	3321.971436
3795.423828	3290.653076
3794.693359	3375.627441
3793.961914	3426.379395
3793.230469	3343.774170
3792.500000	3408.188232
3791.768555	3356.373291
3791.036133	3372.921875
3790.304688	3454.384277
3789.573242	3501.657959
3788.840820	3490.849365
3788.109375	3473.213867
3787.376953	3284.853271
3786.644531	3362.850098
3785.912109	3362.310791
3785.179688	3464.160645
3784.447266	3378.294678
3783.714844	3312.927490
3782.981445	3278.282959
3782.249023	3444.885498
3781.515625	3423.871826
3780.782227	3327.851563
3780.048828	3381.864258
3779.315430	3517.665771
3778.582031	3448.940674
3777.848633	3291.642822
3777.114258	3362.661133
3776.380859	3491.565430
3775.646484	3375.206299
3774.912109	3388.286377
3774.177734	3520.529053
3773.443359	3468.901367
3772.708984	3260.720947
3771.974609	3355.485840
3771.240234	3433.207275
3770.504883	3432.656738
3769.770508	3381.083984
3769.035156	3404.348633
3768.299805	3328.993896
3767.564453	3365.858643
3766.829102	3429.906006
3766.093750	3412.362305
3765.357422	3530.752930
3764.622070	3401.075195
3763.885742	3420.912598
3763.150391	3512.072021
3762.414063	3433.399902
3761.677734	3364.939453
3760.941406	3374.584961
3760.205078	3394.410400
3759.467773	3475.319092
3758.731445	3420.468750
3757.994141	3402.956543
3757.257813	3510.962402
3756.520508	3384.906982
3755.783203	3499.663330
3755.045898	3390.603027
3754.308594	3329.038330
3753.571289	3504.759521
3752.833008	3433.029297
3752.095703	3429.090332
3751.357422	3455.643799
3750.619141	3519.449463
3749.880859	3468.083252
3749.142578	3349.008301
3748.404297	3575.314209
3747.666016	3432.563721
3746.927734	3350.782471
3746.188477	3560.058594
3745.450195	3366.625977
3744.710938	3423.597412
3743.971680	3456.873047
3743.232422	3503.665771
3742.493164	3526.773682
3741.753906	3451.830078
3741.013672	3495.220459
3740.274414	3487.900635
3739.534180	3548.167236
3738.794922	3446.238525
3738.054688	3506.492432
3737.314453	3418.113281
3736.574219	3451.335693
3735.833984	3420.393799
3735.092773	3402.965820
3734.352539	3500.307373
3733.611328	3418.749268
3732.871094	3462.067627
3732.129883	3501.998291
3731.388672	3545.289307
3730.647461	3514.366455
3729.906250	3426.126709
3729.165039	3557.071045
3728.422852	3566.614258
3727.681641	3505.372559
3726.939453	3535.140869
3726.197266	3541.313232
3725.455078	3520.531982
3724.712891	3432.389404
3723.970703	3549.714111
3723.228516	3532.308594
3722.486328	3518.275146
3721.743164	3494.147705
3721.000977	3426.273926
3720.257813	3422.359375
3719.514648	3613.593750
3718.771484	3599.558350
3718.028320	3662.888428
3717.285156	3571.500488
3716.541016	3678.526611
3715.797852	3469.498291
3715.053711	3532.808350
3714.310547	3565.850342
3713.566406	3645.926025
3712.822266	3621.823486
3712.078125	3564.136230
3711.333008	3543.412842
3710.588867	3586.500732
3709.844727	3559.064941
3709.099609	3558.494629
3708.354492	3541.141602
3707.610352	3782.205566
3706.865234	3677.580322
3706.120117	3415.307129
3705.374023	3777.032959
3704.628906	3843.504395
3703.883789	3698.696289
3703.137695	3667.928467
3702.391602	3761.203125
3701.646484	3666.752686
3700.900391	3652.760498
3700.154297	3638.772461
3699.408203	3782.242920
3698.661133	3815.132080
3697.915039	3807.822754
3697.167969	3726.849121
3696.421875	3726.251709
3695.674805	3665.401367
3694.927734	3768.566650
3694.180664	3801.425781
3693.433594	3784.087646
3692.686523	3783.481201
3691.938477	3802.943115
3691.191406	3748.826660
3690.443359	3932.126465
3689.695313	3747.625244
3688.947266	3757.052246
3688.199219	3843.343018
3687.451172	3876.142090
3686.703125	3815.383545
3685.955078	3764.665527
3685.206055	3877.618652
3684.458008	3810.209961
3683.708984	3829.632324
3682.959961	3962.550293
3682.210938	3868.458008
3681.461914	3841.140381
3680.712891	3933.951904
3679.962891	4026.733643
3679.213867	3959.375977
3678.463867	3908.715088
3677.714844	4011.459717
3676.964844	3947.470703
3676.214844	4060.176270
3675.464844	3966.203125
3674.713867	3982.229492
3673.963867	4058.224365
3673.213867	4200.821777
3672.462891	4213.471680
3671.711914	4039.622314
3670.961914	4062.282959
3670.210938	4224.763184
3669.459961	4224.085938
3668.708008	4250.034180
3667.957031	4119.576660
3667.206055	4082.318604
3666.454102	4178.133789
3665.702148	4234.006348
3664.950195	4236.653320
3664.199219	4136.226074
3663.446289	4128.914551
3662.694336	4277.827148
3661.942383	4410.075195
3661.190430	4210.000000
3660.437500	4418.628906
3659.684570	4384.703125
3658.932617	4350.788574
3658.179688	4446.391113
3657.426758	4435.717773
3656.672852	4435.006836
3655.919922	4590.293457
3655.166992	4509.912598
3654.413086	4545.687988
3653.659180	4544.959473
3652.906250	4610.570313
3652.152344	4530.237305
3651.398438	4529.511230
3650.644531	4595.092285
3649.889648	4541.318848
3649.135742	4663.220215
3648.380859	4649.217773
3647.626953	4843.953613
3646.872070	4783.548828
3646.117188	4789.406738
3645.362305	4762.145996
3644.607422	4758.071777
3643.851563	4879.800781
3643.096680	4849.228027
3642.341797	4788.879883
3641.585938	5032.977539
3640.830078	4959.385254
3640.074219	4879.199707
3639.318359	4967.717773
3638.562500	4900.784180
3637.806641	5058.703613
3637.049805	5097.562500
3636.293945	5126.493164
3635.537109	5125.671387
3634.780273	5240.498047
3634.024414	5342.072754
3633.267578	5149.633301
3632.509766	5244.584473
3631.752930	5088.544922
3630.996094	5315.538086
3630.238281	5179.343262
3629.481445	5261.026367
3628.723633	5299.783203
3627.965820	5302.233398
3627.208008	5222.209473
3626.450195	5409.381348
3625.692383	5438.195313
3624.933594	5417.540039
3624.175781	5555.138184
3623.416992	5597.099609
3622.658203	5461.076660
3621.899414	5305.325195
3621.140625	5703.134766
3620.381836	5593.512695
3619.623047	5569.561035
3618.864258	5598.306641
3618.104492	5534.850098
3617.345703	5530.670898
3616.585938	5710.819336
3615.826172	5584.845703
3615.066406	5778.089355
3614.306641	5872.572266
3613.546875	5779.526855
3612.786133	5732.556152
3612.026367	5652.716797
3611.265625	5872.096680
3610.504883	5844.856934
3609.744141	5794.618652
3608.983398	5760.827148
3608.222656	5809.190430
3607.461914	5903.530273
3606.701172	5922.292480
3605.939453	6046.141602
3605.178711	5874.423828
3604.416992	5804.537109
3603.655273	5862.693359
3602.893555	6065.241211
3602.131836	5923.163574
3601.370117	5899.247559
3600.607422	5842.534180
3599.845703	5959.675781
3599.083008	5929.206055
3598.320313	6039.738770
3597.557617	5953.533203
3596.794922	6070.581543
3596.032227	6000.785156
3595.269531	6107.957520
3594.506836	6182.333496
3593.743164	6001.176270
3592.980469	6101.746582
3592.216797	6126.966309
3591.453125	6256.951660
3590.689453	6082.445313
3589.925781	6035.646973
3589.162109	6188.492188
3588.397461	6046.800781
3587.633789	6225.767578
3586.869141	6021.965820
3586.104492	6096.222656
3585.339844	6304.524414
3584.575195	6081.190918
3583.810547	6129.250488
3583.045898	6053.094727
3582.281250	6228.590820
3581.515625	6132.838867
3580.750977	6177.591797
3579.985352	6078.612305
3579.219727	6136.422852
3578.454102	6207.275391
3577.688477	6238.927734
3576.921875	6061.660156
3576.156250	6116.171387
3575.390625	6017.296387
3574.624023	6244.717773
3573.857422	6145.853027
3573.090820	6206.838379
3572.324219	6199.321777
3571.557617	6283.103027
3570.791016	6203.854980
3570.023438	6147.449219
3569.256836	6270.305664
3568.489258	6259.525391
3567.722656	6219.426758
3566.955078	6247.747070
3566.187500	6285.828613
3565.418945	6307.616211
3564.651367	6176.370605
3563.883789	6142.827637
3563.115234	6109.294922
3562.347656	6176.656250
3561.579102	6286.294922
3560.810547	6373.125000
3560.041992	6372.104004
3559.273438	6374.334961
3558.503906	6298.524414
3557.735352	6229.240723
3556.966797	6254.247559
3556.197266	6298.747070
3555.427734	6167.753418
3554.658203	6478.677246
3553.888672	6191.765137
3553.119141	6197.269043
3552.349609	6180.038086
3551.579102	6347.892090
3550.809570	6242.987305
3550.039063	6407.530762
3549.268555	6279.931641
3548.498047	6301.639648
3547.727539	6060.543945
3546.957031	6312.595703
3546.186523	6418.614746
3545.415039	6235.986816
3544.644531	6341.984375
3543.873047	6389.595215
3543.101563	6362.640625
3542.330078	6306.527832
3541.558594	6263.394043
3540.787109	6327.185059
3540.015625	6348.845215
3539.243164	6221.519043
3538.471680	6388.906738
3537.699219	6365.219238
3536.926758	6195.868164
3536.154297	6175.455566
3535.381836	6210.062988
3534.609375	6222.010254
3533.836914	6331.004883
3533.063477	6135.917969
3532.291016	6212.550781
3531.517578	6415.266113
3530.744141	6178.229980
3529.970703	6526.346191
3529.197266	6360.470703
3528.423828	6230.194336
3527.649414	6306.737793
3526.875977	6270.192383
3526.101563	5984.958496
3525.328125	6197.137207
3524.553711	6144.482422
3523.779297	6295.229004
3523.004883	6219.980469
3522.229492	6283.529297
3521.455078	6259.934570
3520.680664	6310.551270
3519.905273	6135.350586
3519.129883	6185.970703
3518.354492	6072.114746
3517.579102	6151.746094
3516.803711	6128.194336
3516.028320	6227.129883
3515.252930	6235.799805
3514.476563	6267.021484
3513.700195	6063.056152
3512.924805	6181.264648
3512.148438	6115.862305
3511.372070	6166.402832
3510.595703	6043.072266
3509.818359	6174.083496
3509.041992	6070.102051
3508.264648	6114.180664
3507.488281	6077.808594
3506.710938	6092.919434
3505.933594	6017.964355
3505.156250	6287.137695
3504.378906	6302.207031
3503.601563	6037.575684
3502.823242	6071.966309
3502.045898	6042.067871
3501.267578	5983.259277
3500.489258	6258.604004
3499.710938	6180.505371
3498.932617	6047.830566
3498.154297	6046.861328
3497.375977	6100.475586
3496.596680	5919.722656
3495.818359	6098.520020
3495.039063	6110.379395
3494.259766	5900.833008
3493.480469	5941.594238
3492.701172	5882.903320
3491.921875	5965.346680
3491.142578	6079.830566
3490.362305	6040.382324
3489.582031	5956.067383
3488.802734	6032.035645
3488.022461	6120.797852
3487.242188	5930.775391
3486.461914	5750.424316
3485.681641	6018.560059
3484.900391	5991.975098
3484.120117	5936.579590
3483.338867	5868.395996
3482.557617	6193.958496
3481.777344	5988.133789
3480.996094	5932.774414
3480.213867	6027.807617
3479.432617	5850.898438
3478.651367	5760.403809
3477.869141	5893.793945
3477.087891	5736.175293
3476.305664	5914.282715
3475.523438	5779.086426
3474.741211	5813.314453
3473.958984	5988.128418
3473.175781	5888.127441
3472.393555	5705.105957
3471.610352	5879.852539
3470.828125	5792.689941
3470.044922	5932.245117
3469.261719	5806.794434
3468.478516	5840.973633
3467.695313	5750.681152
3466.911133	5791.239258
3466.127930	6023.199707
3465.343750	5897.833984
3464.560547	5801.211914
3463.776367	5892.754395
3462.992188	5843.986816
3462.208008	5632.662109
3461.423828	5762.433594
3460.638672	5790.189941
3459.854492	5833.868164
3459.069336	5890.274414
3458.285156	5870.219238
3457.500000	5996.663574
3456.714844	5820.575684
3455.929688	5864.212891
3455.143555	5735.948730
3454.358398	5789.133301
3453.572266	5559.095703
3452.787109	5526.388672
3452.000977	5710.003906
3451.214844	5613.672363
3450.428711	5609.592285
3449.642578	5688.181152
3448.856445	5795.355957
3448.069336	5689.536133
3447.283203	5685.445801
3446.496094	5856.119141
3445.708984	5715.392578
3444.921875	5536.593750
3444.134766	5605.577637
3443.347656	5703.118164
3442.560547	5591.080566
3441.772461	5637.800781
3440.985352	5646.418457
3440.197266	5521.750000
3439.409180	5612.878906
3438.621094	5605.634277
3437.833008	5677.688965
3437.044922	5581.637207
3436.256836	5707.577637
3435.467773	5719.343750
3434.679688	5636.010742
3433.890625	5543.195801
3433.101563	5393.371094
3432.312500	5585.774902
3431.523438	5689.417480
3430.734375	5580.816406
3429.944336	5510.251953
3429.155273	5512.534668
3428.365234	5587.629883
3427.575195	5656.370605
3426.785156	5614.321289
3425.995117	5471.028809
3425.205078	5406.876465
3424.415039	5516.723633
3423.624023	5525.327148
3422.833984	5420.086914
3422.042969	5574.143066
3421.251953	5551.120605
3420.460938	5584.998535
3419.669922	5454.534180
3418.878906	5453.659668
3418.087891	5471.740234
3417.295898	5546.671875
3416.504883	5346.816406
3415.712891	5497.527832
3414.920898	5414.559570
3414.128906	5325.304688
3413.336914	5466.478027
3412.544922	5282.573242
3411.752930	5354.294922
3410.959961	5337.663086
3410.166992	5425.123047
3409.375000	5417.945801
3408.582031	5360.320801
