#Wave		#Intensity
4002.114258	4148.627441
4001.416016	4345.499512
4000.717773	4280.380371
4000.018555	4276.114258
3999.320313	4393.493164
3998.621094	4285.471191
3997.921875	4288.359375
3997.223633	4144.628418
3996.524414	4304.858398
3995.824219	4264.842773
3995.125000	4282.028809
3994.425781	4392.126953
3993.725586	4316.384277
3993.026367	4408.578125
3992.326172	4322.141602
3991.625977	4321.446777
3990.925781	4324.323242
3990.225586	4202.238281
3989.525391	4208.702637
3988.825195	4222.302734
3988.125000	4335.818848
3987.423828	4270.897949
3986.723633	4316.588379
3986.022461	4301.627441
3985.321289	4315.201172
3984.620117	4275.285156
3983.918945	4320.944824
3983.217773	4288.169922
3982.516602	4358.760742
3981.814453	4258.284668
3981.113281	4264.726074
3980.411133	4210.606934
3979.708984	4320.342773
3979.006836	4312.526855
3978.304688	4276.228027
3977.602539	4339.621094
3976.900391	4342.483398
3976.198242	4256.373535
3975.495117	4305.505371
3974.792969	4194.524902
3974.089844	4154.722656
3973.386719	4228.743164
3972.683594	4199.615723
3971.980469	4262.938477
3971.277344	4301.356934
3970.574219	4226.026367
3969.870117	4246.669922
3969.166992	4324.156250
3968.462891	4312.804199
3967.759766	4425.774902
3967.055664	4247.493164
3966.351563	4381.743164
3965.647461	4274.530762
3964.943359	4266.745117
3964.238281	4251.863281
3963.534180	4297.311523
3962.829102	4275.333496
3962.125000	4224.982910
3961.419922	4426.474609
3960.714844	4390.300781
3960.009766	4322.227051
3959.304688	4360.529785
3958.599609	4221.590820
3957.893555	4288.249023
3957.188477	4276.930176
3956.482422	4332.928711
3955.777344	4332.232910
3955.071289	4274.869629
3954.365234	4387.500488
3953.659180	4177.900391
3952.953125	4131.209473
3952.246094	4247.348145
3951.540039	4303.288086
3950.833008	4192.909180
3950.126953	4439.878418
3949.419922	4198.636719
3948.712891	4321.744141
3948.005859	4324.586426
3947.298828	4203.685547
3946.591797	4171.196289
3945.884766	4156.389160
3945.176758	4357.146973
3944.469727	4278.716797
3943.761719	4320.421387
3943.053711	4344.452148
3942.345703	4350.817383
3941.637695	4244.190918
3940.929688	4218.796875
3940.221680	4285.185547
3939.513672	4273.909668
3938.804688	4156.777344
3938.095703	4082.019775
3937.387695	4070.781738
3936.678711	4137.140625
3935.969727	4266.953613
3935.260742	4216.906738
3934.551758	4339.614258
3933.841797	4300.145508
3933.132813	4369.937988
3932.422852	4365.712891
3931.713867	4287.505859
3931.003906	4152.964355
3930.293945	4349.522949
3929.583984	4278.398438
3928.874023	4235.462891
3928.164063	4326.307617
3927.453125	4255.220703
3926.743164	4307.323242
3926.032227	4299.594727
3925.322266	4281.314941
3924.611328	4206.763184
3923.900391	4332.692383
3923.189453	4156.185547
3922.478516	4190.674805
3921.766602	4193.517090
3921.055664	4157.698730
3920.344727	4185.143066
3919.632813	4296.900391
3918.920898	4285.672363
3918.208984	4207.713867
3917.497070	4140.315918
3916.785156	4385.432129
3916.073242	4272.389648
3915.361328	4194.482910
3914.648438	4155.205566
3913.936523	4400.161621
3913.223633	4238.072266
3912.510742	4370.687500
3911.797852	4068.365479
3911.084961	4267.591797
3910.372070	4074.071777
3909.659180	4360.871094
3908.945313	4237.497559
3908.232422	4268.356934
3907.518555	4229.129395
3906.804688	4245.967285
3906.091797	4245.285645
3905.377930	4251.608887
3904.663086	4177.393066
3903.949219	4488.313965
3903.235352	4064.037598
3902.520508	4332.877930
3901.806641	4234.200684
3901.091797	4331.487305
3900.376953	4309.802734
3899.662109	4025.801025
3898.947266	4255.963379
3898.232422	4153.880859
3897.517578	4240.613281
3896.802734	4348.290527
3896.086914	4050.530762
3895.372070	4343.400879
3894.656250	4195.967285
3893.940430	4135.910156
3893.224609	4271.458008
3892.508789	4249.820313
3891.792969	4266.596191
3891.076172	4175.147461
3890.360352	4223.342285
3889.643555	4288.971191
3888.927734	4235.944336
3888.210938	4221.309570
3887.494141	4182.263184
3886.777344	4206.004883
3886.060547	4097.232910
3885.342773	4208.141602
3884.625977	4123.805176
3883.909180	4161.482422
3883.191406	4272.327148
3882.473633	4167.115234
3881.755859	4114.191895
3881.038086	4231.957031
3880.320313	4199.935059
3879.602539	4160.959961
3878.884766	4215.994629
3878.166016	4302.339844
3877.448242	4145.036133
3876.729492	4335.756836
3876.010742	4286.352539
3875.291992	4163.913086
3874.573242	4236.284668
3873.854492	4141.712402
3873.135742	4370.526367
3872.416016	4248.151367
3871.697266	4209.235840
3870.977539	4187.708984
3870.257813	4141.865723
3869.539063	4203.736328
3868.819336	4157.904785
3868.099609	4143.345703
3867.378906	4382.282715
3866.659180	4350.332520
3865.938477	4221.193848
3865.218750	4355.878418
3864.498047	4247.601563
3863.777344	4278.147461
3863.056641	4294.807129
3862.335938	4224.746582
3861.615234	4283.025391
3860.894531	4216.456055
3860.173828	4222.713867
3859.452148	4294.830078
3858.730469	4145.111328
3858.009766	4089.002197
3857.288086	4355.128418
3856.566406	4247.041016
3855.844727	4211.724121
3855.122070	4249.142090
3854.400391	4206.910645
3853.678711	4244.316895
3852.956055	4240.174805
3852.233398	4398.691895
3851.510742	4515.635254
3850.788086	4255.433594
3850.065430	4289.342285
3849.342773	4299.030273
3848.620117	4326.004883
3847.896484	4228.501465
3847.173828	4207.082031
3846.450195	4171.843262
3845.727539	4437.272461
3845.003906	4319.081543
3844.280273	4162.926758
3843.555664	4172.621582
3842.832031	4161.591797
3842.108398	4223.079102
3841.383789	4087.754639
3840.660156	4308.023438
3839.935547	4227.950684
3839.210938	4386.010742
3838.486328	4216.243652
3837.761719	4232.815918
3837.037109	4321.815918
3836.312500	4221.112793
3835.586914	4192.851074
3834.862305	4230.101563
3834.136719	4277.680664
3833.411133	4294.226563
3832.685547	4293.538086
3831.959961	4310.076172
3831.234375	4378.279785
3830.508789	4384.466309
3829.782227	4277.010254
3829.056641	4197.132813
3828.330078	4258.425781
3827.603516	4364.444824
3826.876953	4188.231445
3826.150391	4098.096680
3825.423828	4455.234375
3824.697266	4255.012695
3823.970703	4264.647949
3823.243164	4136.732910
3822.516602	4235.775391
3821.789063	4372.599121
3821.061523	4141.617188
3820.333984	4219.992188
3819.606445	4250.238770
3818.878906	4232.380371
3818.151367	4266.050293
3817.422852	4186.377930
3816.695313	4141.068359
3815.966797	4209.067871
3815.238281	4071.087891
3814.509766	4173.397461
3813.781250	4220.769531
3813.052734	4165.197266
3812.324219	4147.377441
3811.595703	4194.730469
3810.866211	4122.041992
3810.136719	4189.956543
3809.408203	4220.138672
3808.678711	4157.764160
3807.949219	4239.348633
3807.219727	4300.347168
3806.489258	4251.693359
3805.759766	4206.480469
3805.030273	4205.806152
3804.299805	4301.014160
3803.569336	4156.523926
3802.839844	4268.825684
3802.109375	4333.173340
3801.378906	4130.569824
3800.647461	4263.351563
3799.916992	4303.720703
3799.186523	4364.600586
3798.455078	4261.301270
3797.723633	4202.487793
3796.993164	4232.583984
3796.261719	4269.506836
3795.530273	4374.774414
3794.798828	4343.317871
3794.066406	4421.205566
3793.334961	4167.701660
3792.602539	4047.487305
3791.871094	4033.178467
3791.138672	4295.448730
3790.406250	4223.066895
3789.673828	4208.736328
3788.941406	4330.924805
3788.208984	4190.325684
3787.476563	4210.124512
3786.743164	4209.449707
3786.010742	4290.630859
3785.277344	4269.482422
3784.543945	4367.675781
3783.810547	4332.885254
3783.077148	4182.217285
3782.343750	4297.416992
3781.610352	4303.542969
3780.875977	4118.883301
3780.142578	4360.070313
3779.408203	4246.981445
3778.673828	4236.084961
3777.939453	4272.857422
3777.205078	4251.748047
3776.470703	4380.402344
3775.736328	4294.624512
3775.000977	4365.388184
3774.266602	4255.826172
3773.531250	4438.819336
3772.795898	4346.285156
3772.061523	4287.783203
3771.326172	4287.095703
3770.589844	4266.013672
3769.854492	4353.695313
3769.119141	4349.599121
3768.382813	4440.636719
3767.647461	4239.500000
3766.911133	4215.044922
3766.174805	4373.978516
3765.438477	4268.020020
3764.702148	4396.340820
3763.965820	4236.103516
3763.229492	4320.268555
3762.492188	4360.294922
3761.755859	4149.250000
3761.018555	4341.936523
3760.281250	4307.324707
3759.543945	4157.428223
3758.806641	4434.783203
3758.069336	4362.883301
3757.332031	4145.261230
3756.593750	4466.540039
3755.856445	4357.397461
3755.118164	4438.006348
3754.379883	4396.647949
3753.641602	4338.369629
3752.903320	4283.495605
3752.165039	4259.109863
3751.426758	4380.290039
3750.688477	4206.976563
3749.949219	4321.357910
3749.210938	4303.748047
3748.471680	4127.147461
3747.732422	4427.516602
3746.993164	4305.061035
3746.253906	4304.371094
3745.514648	4367.915527
3744.774414	4242.147949
3744.035156	4376.654297
3743.294922	4359.057617
3742.554688	4311.059082
3741.815430	4465.757324
3741.075195	4302.922363
3740.334961	4295.479004
3739.593750	4277.908203
3738.853516	4530.412598
3738.113281	4347.419434
3737.372070	4248.854004
3736.630859	4406.762207
3735.890625	4338.582031
3735.149414	4425.588867
3734.408203	4259.621582
3733.666016	4387.077637
3732.924805	4214.426270
3732.183594	4416.010742
3731.441406	4391.709961
3730.699219	4417.965332
3729.958008	4501.492188
3729.215820	4362.648438
3728.473633	4318.161133
3727.731445	4381.456543
3726.988281	4448.099121
3726.246094	4464.219727
3725.502930	4443.307617
3724.760742	4378.648926
3724.017578	4371.217285
3723.274414	4447.900879
3722.531250	4329.448730
3721.788086	4470.019531
3721.044922	4462.577637
3720.300781	4579.545410
3719.557617	4356.930664
3718.813477	4396.567871
3718.070313	4493.325195
3717.326172	4509.406250
3716.582031	4300.383789
3715.837891	4340.004395
3715.092773	4372.895020
3714.348633	4593.826172
3713.604492	4492.364258
3712.859375	4488.287598
3712.114258	4584.905273
3711.369141	4624.441406
3710.624023	4606.923828
3709.878906	4559.217773
3709.133789	4508.172852
3708.388672	4598.001953
3707.642578	4557.026855
3706.897461	4737.341309
3706.151367	4619.257324
3705.405273	4692.252441
3704.659180	4708.255859
3703.913086	4640.490723
3703.166992	4576.097168
3702.420898	4575.364258
3701.673828	4487.559082
3700.927734	4704.484863
3700.180664	4683.644043
3699.433594	4662.810059
3698.687500	4652.022461
3697.940430	4668.008301
3697.192383	4774.322754
3696.445313	4656.477051
3695.698242	4746.036133
3694.950195	4761.996094
3694.202148	4577.336914
3693.455078	4643.464355
3692.707031	4890.064453
3691.958984	4652.001953
3691.210938	4828.352051
3690.461914	4867.668945
3689.713867	4770.019043
3688.964844	4849.410156
3688.216797	4825.258301
3687.467773	4834.501465
3686.718750	4887.138184
3685.969727	4839.627930
3685.220703	4895.583984
3684.471680	4901.472656
3683.721680	4967.408691
3682.972656	5026.652344
3682.222656	4979.157227
3681.473633	4931.676758
3680.723633	4894.213379
3679.973633	4970.097168
3679.223633	4962.635254
3678.472656	4875.199707
3677.722656	5011.021973
3676.972656	5180.113770
3676.221680	5155.968750
3675.470703	5091.869141
3674.719727	5014.470703
3673.968750	5240.048340
3673.217773	5305.780762
3672.466797	5161.823730
3671.715820	5277.460449
3670.963867	5273.287598
3670.212891	5212.566406
3669.460938	5141.887207
3668.708984	5290.706055
3667.957031	5439.477051
3667.205078	5222.524414
3666.453125	5311.430176
3665.701172	5380.367676
3664.948242	5349.601074
3664.196289	5425.154785
3663.443359	5327.957031
3662.690430	5356.993652
3661.937500	5505.562500
3661.184570	5464.839844
3660.431641	5417.490723
3659.678711	5446.493652
3658.924805	5545.175293
3658.171875	5398.297363
3657.417969	5662.825684
3656.664063	5535.876953
3655.910156	5704.124023
3655.156250	5660.104492
3654.402344	5649.251953
3653.648438	5784.251953
3652.893555	5664.013184
3652.139648	5845.358887
3651.384766	5794.725098
3650.629883	5661.291016
3649.875000	5779.619629
3649.120117	5722.396973
3648.365234	5834.055664
3647.610352	5899.331543
3646.854492	5997.685547
3646.099609	5900.750977
3645.343750	6015.617676
3644.587891	5998.111816
3643.832031	5993.843262
3643.076172	6068.951660
3642.320313	6054.751953
3641.564453	6014.106934
3640.808594	6234.627930
3640.051758	6018.790527
3639.294922	6150.013184
3638.539063	6347.277344
3637.782227	6309.920410
3637.025391	6193.301270
3636.267578	6139.468262
3635.510742	6343.210938
3634.753906	6295.973633
3633.996094	6268.557129
3633.239258	6452.377930
3632.481445	6382.045898
3631.723633	6430.514160
3630.965820	6554.840820
3630.208008	6537.299316
3629.449219	6684.653320
3628.691406	6502.231934
3627.933594	6646.247070
3627.174805	6490.260254
3626.416016	6545.247070
3625.657227	6662.824707
3624.898438	6747.417480
3624.139648	6657.395996
3623.380859	6896.760742
3622.621094	6780.398926
3621.862305	6657.489258
3621.102539	6521.450684
3620.342773	6727.768555
3619.583984	6795.800781
3618.824219	6626.900879
3618.063477	6977.857422
3617.303711	6832.007324
3616.543945	6863.801270
3615.783203	6951.485840
3615.023438	6970.099121
3614.262695	6991.993164
3613.501953	7010.593750
3612.741211	6963.463379
3611.980469	6909.777344
3611.219727	7171.482422
3610.458008	7029.094727
3609.697266	7149.479980
3608.935547	7033.409668
3608.173828	7111.076172
3607.412109	7149.327148
3606.650391	7167.873535
3605.888672	7087.970215
3605.126953	7211.510254
3604.365234	7095.540527
3603.602539	7245.278809
3602.839844	6988.327637
3602.078125	7190.496094
3601.315430	7153.282715
3600.552734	7129.192383
3599.790039	7255.863281
3599.026367	7189.166016
3598.263672	7158.528809
3597.500000	7272.030762
3596.737305	7283.966797
3595.973633	7289.349121
3595.209961	7186.683594
3594.446289	7211.721191
3593.682617	7112.373535
3592.918945	7484.304199
3592.154297	7293.328125
3591.390625	7220.186523
3590.625977	7235.384766
3589.861328	7381.395996
3589.096680	7219.987305
3588.332031	7365.953613
3587.567383	7377.848633
3586.802734	7353.788574
3586.038086	7290.521484
3585.272461	7152.126953
3584.506836	7324.120605
3583.742188	7185.764160
3582.976563	7246.662109
3582.210938	7363.048828
3581.445313	7218.223145
3580.678711	7266.028809
3579.913086	7176.746582
3579.146484	7221.280762
3578.380859	7350.627441
3577.614258	7310.305176
3576.847656	7472.211426
3576.081055	7294.918945
3575.314453	7257.884766
3574.547852	7403.420898
3573.780273	7343.564941
3573.013672	7182.700195
3572.246094	7302.110840
3571.478516	7222.751465
3570.710938	7159.704590
3569.943359	7197.639648
3569.175781	7098.796875
3568.408203	7166.031250
3567.639648	7207.202148
3566.872070	7153.971191
3566.103516	7240.689453
3565.334961	7376.186035
3564.567383	7303.433594
3563.798828	7263.231445
3563.029297	7268.572266
3562.260742	7351.950195
3561.492188	7223.979004
3560.722656	7232.573242
3559.953125	7146.912598
3559.184570	7110.022949
3558.415039	7063.396973
3557.645508	7097.999023
3556.875000	7067.630371
3556.105469	6988.558594
3555.335938	7123.811035
3554.565430	7057.740723
3553.794922	6809.920898
3553.025391	6805.584473
3552.254883	6872.636719
3551.484375	6968.866211
3550.712891	7068.308105
3549.942383	7050.959473
3549.171875	7017.401855
3548.400391	7022.762207
3547.628906	7115.647949
3546.858398	7088.578125
3546.086914	7058.275879
3545.315430	7089.546875
3544.542969	7007.419434
3543.771484	7093.753906
3543.000000	6933.923828
3542.227539	7091.480957
3541.455078	6831.336914
3540.682617	7060.075195
3539.911133	7007.159180
3539.137695	6996.328125
3538.365234	6940.203125
3537.592773	7104.076660
3536.819336	6980.027832
3536.046875	7066.227051
3535.273438	6890.488281
3534.500000	7112.457031
3533.726563	6859.188965
3532.953125	6854.857910
3532.179688	6944.238281
3531.406250	6923.740723
3530.631836	6877.406738
3529.857422	6947.360840
3529.083984	6817.075195
3528.309570	6932.219727
3527.535156	6753.553711
3526.760742	6881.582031
3525.985352	6725.571777
3525.210938	6889.057617
3524.436523	6720.190918
3523.661133	6844.916016
3522.885742	6814.792969
3522.110352	6910.440430
3521.334961	6864.195313
3520.559570	6869.542969
3519.784180	6626.708984
3519.008789	6702.989746
3518.232422	6811.466309
3517.456055	6765.272949
3516.680664	6831.831055
3515.904297	6611.740723
3515.127930	6739.481445
3514.351563	6773.816406
3513.574219	6782.387695
3512.797852	6823.141113
3512.020508	6661.150391
3511.244141	6808.084961
3510.466797	6790.909668
3509.689453	6921.693848
3508.912109	6856.267090
3508.134766	6620.446777
3507.356445	6580.807617
3506.579102	6412.607422
3505.800781	6729.748535
3505.023438	6371.993164
3504.245117	6759.720215
3503.466797	6716.877441
3502.688477	6731.860352
3501.910156	6746.837891
3501.130859	6784.285645
3500.352539	6616.267090
3499.573242	6685.820313
3498.794922	6553.172363
3498.015625	6795.981934
3497.236328	6551.072266
3496.457031	6787.388672
3495.677734	6744.608398
3494.897461	6381.179199
3494.118164	6752.065430
3493.337891	6674.049316
3492.557617	6612.083008
3491.777344	6691.137695
3490.998047	6584.332031
3490.216797	6429.506836
3489.436523	6684.718750
3488.656250	6475.484375
3487.875000	6503.264648
3487.094727	6531.036133
3486.313477	6481.974609
3485.532227	6490.537598
3484.750977	6595.095703
3483.969727	6536.449219
3483.188477	6647.364258
3482.406250	6419.211914
3481.625000	6446.964355
3480.842773	6388.377930
3480.060547	6611.135742
3479.278320	6520.578125
3478.496094	6628.191895
3477.713867	6438.604980
3476.931641	6479.105957
3476.148438	6359.877930
3475.366211	6531.324219
3474.583008	6523.891113
3473.799805	6452.604492
3473.016602	6445.186035
3472.233398	6460.111816
3471.450195	6503.753906
3470.666992	6458.041504
3469.882813	6472.957520
3469.099609	6293.296875
3468.315430	6496.396973
3467.531250	6527.242676
3466.747070	6507.067871
3465.962891	6388.081055
3465.178711	6495.420898
3464.394531	6443.393555
3463.609375	6588.922852
3462.825195	6447.699707
3462.040039	6335.187500
3461.254883	6550.725098
3460.469727	6307.684570
3459.684570	6338.509277
3458.899414	6343.859863
3458.113281	6387.398926
3457.328125	6380.011230
3456.541992	6423.530273
3455.755859	6371.604492
3454.969727	6364.222168
3454.183594	6375.922363
3453.397461	6343.105469
3452.611328	6481.964355
3451.824219	6398.285156
3451.038086	6279.674805
3450.250977	6285.023438
3449.463867	6274.484863
3448.676758	6314.773438
3447.889648	6218.482910
3447.102539	6261.942383
3446.315430	6330.787109
3445.527344	6158.354492
3444.740234	6182.758301
3443.952148	6077.045898
3443.164063	6028.478516
3442.375977	6135.373047
3441.587891	6112.186523
3440.799805	6304.659668
3440.011719	6199.011230
3439.222656	6068.033691
3438.434570	6162.156250
3437.645508	6135.813965
3436.856445	6236.232422
3436.067383	6121.173828
3435.278320	6272.247559
3434.489258	6138.215820
3433.699219	6029.561035
3432.910156	6234.402832
3432.120117	6211.243164
3431.330078	6251.395996
3430.540039	6193.428223
3429.750000	6072.194336
3428.959961	6071.221191
3428.169922	6237.899414
3427.378906	6072.437500
3426.588867	6172.655273
3425.797852	6301.296387
3425.006836	6091.646484
3424.215820	6163.366211
3423.424805	5909.562988
3422.633789	6123.474121
3421.842773	6062.468262
3421.050781	6115.193848
3420.259766	6234.224121
3419.467773	6046.922852
3418.675781	6083.839355
3417.883789	5918.718262
3417.091797	6141.855957
3416.299805	5973.622559
3415.506836	5975.820313
3414.714844	6211.458984
3413.921875	6055.911621
3413.128906	5957.178711
3412.336914	6031.898438
3411.543945	5974.184570
3410.750000	5948.010254
3409.957031	5978.572754
3409.164063	6094.204590
3408.370117	6011.312500
3407.576172	6022.949219
