#Wave		#Intensity
4002.114258	3772.781006
4001.416016	3844.370850
4000.717773	3754.280273
4000.018555	3893.231934
3999.320313	3860.406494
3998.621094	3920.598145
3997.921875	3769.750244
3997.223633	3812.056885
3996.524414	3789.991699
3995.824219	3717.884766
3995.125000	3799.496582
3994.425781	3763.148438
3993.725586	3791.129150
3993.026367	3858.399170
3992.326172	3875.639160
3991.625977	3785.730225
3990.925781	3817.259766
3990.225586	3691.686035
3989.525391	3855.300049
3988.825195	3954.616699
3988.125000	3786.258301
3987.423828	3935.505859
3986.723633	3738.665039
3986.022461	3877.171631
3985.321289	3865.849854
3984.620117	3936.542725
3983.918945	3647.134277
3983.217773	3771.308105
3982.516602	3931.081543
3981.814453	3876.998779
3981.113281	3776.616211
3980.411133	3861.503906
3979.708984	3843.075195
3979.006836	3870.946777
3978.304688	3802.674316
3977.602539	3940.902588
3976.900391	3854.843750
3976.198242	3726.106201
3975.495117	3956.794922
3974.792969	3828.082275
3974.089844	3791.895996
3973.386719	3976.227539
3972.683594	3847.573486
3971.980469	3694.072754
3971.277344	3867.666504
3970.574219	3827.948242
3969.870117	3941.051758
3969.166992	3823.165283
3968.462891	3740.842529
3967.759766	3846.801025
3967.055664	3810.669189
3966.351563	3849.116211
3965.647461	3816.545410
3964.943359	3957.920654
3964.238281	3893.400635
3963.534180	3818.255371
3962.829102	3828.286133
3962.125000	3799.291748
3961.419922	3827.056396
3960.714844	3886.728516
3960.009766	3804.552734
3959.304688	3857.118896
3958.599609	3821.053711
3957.893555	3763.735840
3957.188477	3738.327393
3956.482422	3819.212891
3955.777344	3719.415039
3955.071289	3796.735840
3954.365234	3934.231445
3953.659180	3763.651123
3952.953125	3748.886719
3952.246094	3872.165527
3951.540039	3758.299316
3950.833008	3793.078857
3950.126953	3895.064697
3949.419922	3890.901855
3948.712891	3685.153320
3948.005859	3804.787354
3947.298828	3896.098877
3946.591797	3775.286133
3945.884766	3767.611084
3945.176758	3880.087158
3944.469727	3964.260986
3943.761719	3762.263916
3943.053711	3899.410645
3942.345703	3845.812012
3941.637695	3972.308350
3940.929688	3777.500000
3940.221680	3759.244385
3939.513672	3804.520996
3938.804688	3775.680664
3938.095703	3736.265137
3937.387695	3735.665283
3936.678711	3847.928711
3935.969727	3688.622559
3935.260742	3804.383057
3934.551758	3803.772217
3933.841797	3856.032227
3933.132813	3746.164795
3932.422852	3742.039795
3931.713867	3723.823975
3931.003906	3783.107666
3930.293945	3831.806641
3929.583984	3690.338867
3928.874023	3820.014160
3928.164063	3784.198975
3927.453125	3846.944580
3926.743164	3737.236328
3926.032227	3750.710449
3925.322266	3795.841309
3924.611328	3886.683350
3923.900391	3646.917236
3923.189453	3751.818848
3922.478516	3772.310547
3921.766602	3898.248779
3921.055664	3869.506592
3920.344727	3844.287598
3919.632813	3847.184082
3918.920898	3955.464600
3918.208984	3803.801758
3917.497070	3739.980225
3916.785156	3834.180908
3916.073242	3826.544434
3915.361328	3983.881348
3914.648438	3867.429688
3913.936523	3824.702148
3913.223633	3806.546631
3912.510742	3756.826660
3911.797852	3850.918457
3911.084961	3808.220459
3910.372070	3758.524170
3909.659180	3694.821533
3908.945313	3624.129150
3908.232422	3742.697021
3907.518555	3696.546631
3906.804688	3892.136719
3906.091797	3937.047119
3905.377930	3792.827148
3904.663086	3750.199463
3903.949219	3777.605957
3903.235352	3692.988525
3902.520508	3790.393066
3901.806641	3789.784668
3901.091797	3831.161865
3900.376953	3715.105957
3899.662109	3777.467529
3898.947266	3647.468750
3898.232422	3933.599121
3897.517578	3887.520264
3896.802734	3747.080078
3896.086914	3722.014893
3895.372070	3784.314697
3894.656250	3703.351807
3893.940430	3877.415771
3893.224609	3838.375000
3892.508789	3900.615967
3891.792969	3756.839111
3891.076172	3843.509277
3890.360352	3801.008301
3889.643555	3866.704590
3888.927734	3890.508789
3888.210938	3736.382568
3887.494141	3732.294922
3886.777344	3822.372559
3886.060547	3849.655518
3885.342773	3852.524170
3884.625977	3830.990723
3883.909180	3750.213379
3883.191406	3930.819824
3882.473633	3780.368164
3881.755859	3734.474121
3881.038086	3914.995605
3880.320313	3754.170898
3879.602539	3840.618164
3878.884766	3878.297363
3878.166016	3714.074951
3877.448242	3765.683594
3876.729492	3751.160400
3876.010742	3851.454834
3875.291992	3694.298828
3874.573242	3672.837891
3873.854492	3780.051270
3873.135742	3869.845703
3872.416016	3862.271973
3871.697266	3802.563232
3870.977539	3739.398193
3870.257813	3860.413574
3869.539063	3759.043457
3868.819336	3970.330322
3868.099609	3796.041016
3867.378906	3757.234619
3866.659180	3704.552979
3865.938477	3749.086670
3865.218750	3797.076660
3864.498047	3709.710938
3863.777344	3854.843506
3863.056641	3746.681641
3862.335938	3725.269043
3861.615234	3884.201172
3860.894531	3855.838135
3860.173828	4011.231201
3859.452148	3757.542969
3858.730469	3829.722412
3858.009766	3790.990234
3857.288086	3669.117676
3856.566406	3786.310059
3855.844727	3861.901611
3855.122070	3837.041016
3854.400391	3794.875732
3853.678711	3905.048584
3852.956055	3952.881348
3852.233398	3889.952637
3851.510742	3937.772461
3850.788086	3944.060303
3850.065430	3877.703857
3849.342773	3794.075684
3848.620117	3914.498535
3847.896484	3740.996582
3847.173828	3819.905762
3846.450195	3874.595215
3845.727539	3787.578369
3845.003906	3869.897217
3844.280273	3814.001221
3843.555664	3830.660156
3842.832031	3888.757080
3842.108398	3884.680420
3841.383789	3825.364990
3840.660156	3807.491699
3839.935547	3696.436768
3839.210938	3792.467285
3838.486328	3750.455811
3837.761719	3839.547119
3837.037109	3763.049561
3836.312500	3855.558838
3835.586914	3768.738770
3834.862305	3799.162109
3834.136719	3815.787598
3833.411133	3894.443115
3832.685547	3831.793213
3831.959961	3855.295898
3831.234375	3844.343262
3830.508789	3771.398682
3829.782227	3743.244629
3829.056641	3790.847900
3828.330078	3814.337646
3827.603516	3930.753662
3826.876953	3806.231689
3826.150391	3788.416748
3825.423828	3887.579102
3824.697266	3708.086914
3823.970703	3731.566895
3823.243164	3885.709229
3822.516602	3840.390625
3821.789063	3846.649902
3821.061523	3749.796387
3820.333984	3759.504395
3819.606445	3652.387939
3818.878906	3954.115234
3818.151367	3785.174805
3817.422852	3757.093750
3816.695313	3698.118164
3815.966797	3563.631592
3815.238281	3672.904053
3814.509766	3799.301758
3813.781250	3860.459717
3813.052734	3894.150635
3812.324219	3715.144287
3811.595703	3738.557861
3810.866211	3974.581543
3810.136719	3881.367432
3809.408203	3801.895996
3808.678711	3835.563232
3807.949219	3968.605957
3807.219727	3834.333252
3806.489258	3713.807861
3805.759766	3791.998291
3805.030273	3825.639648
3804.299805	3759.963135
3803.569336	3851.803711
3802.839844	3923.074951
3802.109375	3867.682373
3801.378906	3733.597168
3800.647461	3739.841797
3799.916992	3742.663330
3799.186523	3837.838379
3798.455078	3864.583008
3797.723633	3987.062988
3796.993164	3866.762695
3796.261719	3862.724609
3795.530273	3817.674072
3794.798828	3755.551514
3794.066406	3888.200684
3793.334961	3815.838379
3792.602539	3893.785400
3791.871094	3770.219238
3791.138672	3861.806396
3790.406250	3673.419678
3789.673828	3833.261230
3788.941406	3846.298096
3788.208984	3886.629395
3787.476563	3824.594482
3786.743164	3868.327148
3786.010742	3775.618896
3785.277344	3792.064209
3784.543945	3921.020508
3783.810547	3862.438477
3783.077148	3814.100342
3782.343750	3769.185791
3781.610352	3898.062744
3780.875977	3798.639160
3780.142578	3716.278809
3779.408203	3858.725098
3778.673828	3837.675293
3777.939453	3826.846191
3777.205078	3846.657471
3776.470703	3818.812256
3775.736328	3825.006104
3775.000977	3848.210449
3774.266602	3803.368408
3773.531250	3918.406250
3772.795898	3679.718506
3772.061523	3917.150146
3771.326172	3807.729980
3770.589844	3892.099854
3769.854492	3799.712158
3769.119141	3809.297363
3768.382813	3761.120605
3767.647461	4039.074707
3766.911133	3946.722168
3766.174805	4024.196289
3765.438477	3870.758301
3764.702148	3931.245117
3763.965820	3872.911865
3763.229492	3851.928467
3762.492188	3773.266846
3761.755859	3779.447510
3761.018555	3914.527100
3760.281250	3920.683105
3759.543945	3865.797852
3758.806641	3824.492188
3758.069336	3891.678467
3757.332031	3921.559570
3756.593750	3846.375732
3755.856445	3879.642578
3755.118164	3929.837646
3754.379883	3875.011719
3753.641602	3850.683838
3752.903320	3829.749756
3752.165039	3900.233887
3751.426758	3930.074463
3750.688477	3888.830322
3749.949219	3925.430908
3749.210938	3914.651611
3748.471680	3947.853271
3747.732422	3754.425537
3746.993164	3922.915039
3746.253906	3973.005615
3745.514648	3975.749756
3744.774414	3937.930420
3744.035156	3903.502686
3743.294922	3980.596680
3742.554688	4006.987305
3741.815430	3918.516357
3741.075195	4019.213135
3740.334961	3907.129639
3739.593750	3855.857422
3738.853516	4007.153564
3738.113281	4104.395996
3737.372070	3850.629150
3736.630859	3914.122803
3735.890625	3832.526611
3735.149414	3821.792969
3734.408203	3999.929443
3733.666016	4097.078613
3732.924805	3900.872803
3732.183594	3923.844727
3731.441406	3970.402344
3730.699219	4023.684814
3729.958008	3982.607422
3729.215820	3948.281006
3728.473633	4062.170410
3727.731445	3832.511719
3726.988281	4165.252441
3726.246094	3976.050781
3725.502930	4066.299561
3724.760742	3924.292725
3724.017578	4213.059082
3723.274414	3993.689941
3722.531250	4114.153320
3721.788086	3999.137207
3721.044922	4089.294678
3720.300781	4108.813477
3719.557617	4212.372070
3718.813477	3936.071289
3718.070313	4012.737793
3717.326172	3978.492676
3716.582031	3897.222900
3715.837891	4135.097168
3715.092773	4067.262451
3714.348633	4140.488281
3713.604492	4176.757324
3712.859375	4108.948242
3712.114258	4212.339844
3711.369141	4161.326172
3710.624023	4221.056152
3709.878906	4263.992676
3709.133789	4155.972168
3708.388672	4182.136230
3707.642578	4164.699707
3706.897461	4140.563965
3706.151367	4210.295410
3705.405273	4202.917480
3704.659180	4175.435547
3703.913086	4231.725586
3703.166992	4234.397461
3702.420898	4176.778320
3701.673828	4293.321289
3700.927734	4282.588379
3700.180664	4198.205566
3699.433594	4261.131836
3698.687500	4300.610840
3697.940430	4273.151367
3697.192383	4188.824219
3696.445313	4221.604980
3695.698242	4291.165527
3694.950195	4481.091797
3694.202148	4403.471680
3693.455078	4342.591797
3692.707031	4298.443848
3691.958984	4287.729004
3691.210938	4420.698730
3690.461914	4406.626953
3689.713867	4382.538574
3688.964844	4371.816895
3688.216797	4364.437988
3687.467773	4306.979980
3686.718750	4479.876953
3685.969727	4509.198242
3685.220703	4538.509766
3684.471680	4467.713867
3683.721680	4403.612793
3682.972656	4529.657715
3682.222656	4475.571777
3681.473633	4644.912598
3680.723633	4614.163086
3679.973633	4526.755371
3679.223633	4586.021484
3678.472656	4751.903320
3677.722656	4531.243652
3676.972656	4667.099121
3676.221680	4696.328125
3675.470703	4712.226563
3674.719727	4758.086914
3673.968750	4747.337402
3673.217773	4739.919434
3672.466797	4629.333984
3671.715820	4841.554199
3670.963867	4621.196777
3670.212891	4889.899902
3669.460938	4939.005371
3668.708984	4718.737793
3667.957031	4887.549805
3667.205078	4953.253418
3666.453125	4862.717285
3665.701172	4921.756836
3664.948242	4824.609375
3664.196289	4933.468750
3663.443359	5005.755371
3662.690430	5024.879883
3661.937500	5123.693359
3661.184570	5126.192383
3660.431641	5075.578125
3659.678711	5234.077148
3658.924805	5000.945313
3658.171875	5202.538574
3657.417969	5085.595703
3656.664063	5224.089844
3655.910156	5193.405762
3655.156250	5361.680664
3654.402344	5271.309082
3653.648438	5356.647949
3652.893555	5216.592285
3652.139648	5272.089355
3651.384766	5562.803223
3650.629883	5455.907715
3649.875000	5325.861816
3649.120117	5470.717773
3648.365234	5363.887695
3647.610352	5422.617676
3646.854492	5603.797852
3646.099609	5589.662598
3645.343750	5621.855957
3644.587891	5554.787598
3643.832031	5762.292969
3643.076172	5562.930176
3642.320313	5783.594238
3641.564453	5660.335938
3640.808594	5722.238281
3640.051758	5810.562012
3639.294922	5793.107910
3638.539063	5993.732910
3637.782227	5649.195801
3637.025391	5839.870117
3636.267578	5928.104004
3635.510742	5996.497070
3634.753906	5985.631836
3633.996094	6146.420898
3633.239258	5772.485352
3632.481445	6032.254395
3631.723633	6037.886719
3630.965820	6205.161621
3630.208008	6092.023926
3629.449219	6087.750000
3628.691406	6212.071289
3627.933594	6290.198242
3627.174805	6308.967773
3626.416016	6205.790527
3625.657227	6273.995117
3624.898438	6233.454102
3624.139648	6248.926270
3623.380859	6083.246094
3622.621094	6365.474121
3621.862305	6219.583008
3621.102539	6389.770508
3620.342773	6296.585938
3619.583984	6338.359375
3618.824219	6376.829102
3618.063477	6418.576172
3617.303711	6647.803223
3616.543945	6689.493164
3615.783203	6662.114746
3615.023438	6388.161621
3614.262695	6682.991211
3613.501953	6665.486816
3612.741211	6431.098633
3611.980469	6525.353027
3611.219727	6688.564941
3610.458008	6891.140137
3609.697266	6578.046875
3608.935547	6767.440430
3608.173828	6566.090332
3607.412109	6807.944824
3606.650391	6885.622070
3605.888672	6874.674805
3605.126953	6807.954590
3604.365234	6865.911621
3603.602539	6769.694824
3602.839844	6742.375000
3602.078125	6872.448730
3601.315430	6776.276367
3600.552734	6703.079590
3599.790039	6728.223633
3599.026367	6743.529785
3598.263672	6778.487793
3597.500000	6872.396973
3596.737305	6828.718750
3595.973633	6870.194824
3595.209961	6849.449707
3594.446289	6818.890137
3593.682617	6755.609375
3592.918945	6970.515137
3592.154297	6939.950195
3591.390625	6909.395020
3590.625977	7029.313965
3589.861328	6962.778809
3589.096680	7017.251953
3588.332031	6895.160156
3587.567383	6838.484375
3586.802734	6915.829590
3586.038086	6823.222168
3585.272461	6792.723633
3584.506836	6883.104980
3583.742188	6859.138672
3582.976563	7060.515137
3582.210938	6925.510742
3581.445313	6957.047852
3580.678711	6841.687500
3579.913086	6834.064453
3579.146484	6904.758301
3578.380859	7040.681152
3577.614258	6987.359863
3576.847656	6969.932617
3576.081055	6998.165527
3575.314453	7147.027344
3574.547852	6911.163574
3573.780273	6854.645508
3573.013672	6993.681641
3572.246094	6943.685059
3571.478516	6906.735840
3570.710938	6817.680176
3569.943359	7112.961426
3569.175781	7040.182617
3568.408203	6762.311035
3567.639648	6969.566406
3566.872070	6965.194824
3566.103516	6827.400879
3565.334961	6894.635254
3564.567383	6916.303223
3563.798828	6882.667969
3563.029297	6982.382324
3562.260742	6906.476074
3561.492188	6791.580566
3560.722656	6849.003418
3559.953125	6834.905762
3559.184570	6827.311523
3558.415039	6761.237305
3557.645508	6672.444336
3556.875000	6772.062988
3556.105469	6835.927246
3555.335938	6704.954102
3554.565430	6606.486816
3553.794922	6696.313965
3553.025391	6623.842773
3552.254883	6437.823730
3551.484375	6433.548340
3550.712891	6695.267578
3549.942383	6830.414063
3549.171875	6621.781250
3548.400391	6750.411133
3547.628906	6619.659668
3546.858398	6683.423828
3546.086914	6724.482422
3545.315430	6736.365723
3544.542969	6783.881348
3543.771484	6594.923828
3543.000000	6720.173828
3542.227539	6686.715820
3541.455078	6523.764648
3540.682617	6652.202637
3539.911133	6774.126465
3539.137695	6608.002930
3538.365234	6496.936035
3537.592773	6761.166016
3536.819336	6682.455078
3536.046875	6577.897461
3535.273438	6657.679688
3534.500000	6469.103027
3533.726563	6526.250000
3532.953125	6667.407715
3532.179688	6604.943359
3531.406250	6536.037109
3530.631836	6534.989746
3529.857422	6537.172852
3529.083984	6484.456543
3528.309570	6515.705566
3527.535156	6614.737793
3526.760742	6800.888184
3525.985352	6602.937012
3525.210938	6637.373047
3524.436523	6536.296875
3523.661133	6509.444336
3522.885742	6437.447266
3522.110352	6562.177734
3521.334961	6545.005371
3520.559570	6337.645020
3519.784180	6597.701172
3519.008789	6474.185547
3518.232422	6334.599121
3517.456055	6565.536621
3516.680664	6287.474609
3515.904297	6428.170410
3515.127930	6588.141113
3514.351563	6522.695801
3513.574219	6392.891602
3512.797852	6324.279297
3512.020508	6349.009766
3511.244141	6521.733887
3510.466797	6392.012207
3509.689453	6436.017578
3508.912109	6370.668457
3508.134766	6358.938965
3507.356445	6347.208984
3506.579102	6335.479492
3505.800781	6323.750000
3505.023438	6312.020020
3504.245117	6300.290527
3503.466797	6395.649414
3502.688477	6285.424805
3501.910156	6306.896484
3501.130859	6366.889648
3500.352539	6414.022949
3499.573242	6329.542969
3498.794922	6402.339844
3498.015625	6285.801758
3497.236328	6297.627441
3496.457031	6280.580078
3495.677734	6173.737793
3494.897461	6297.807129
3494.118164	6360.919922
3493.337891	6343.873047
3492.557617	6240.293945
3491.777344	6329.021973
3490.998047	6183.825195
3490.216797	6253.312012
3489.436523	6290.746582
3488.656250	6456.269043
3487.875000	6285.528809
3487.094727	6278.118652
3486.313477	6321.926270
3485.532227	6167.291016
3484.750977	6281.500977
3483.969727	6123.721680
3483.188477	6445.832031
3482.406250	6172.934082
3481.625000	6091.997559
3480.842773	6135.784668
3480.060547	6348.991699
3479.278320	6095.461914
3478.496094	6209.535645
3477.713867	6071.141113
3476.931641	6143.649414
3476.148438	6123.499023
3475.366211	6279.014160
3474.583008	5837.333496
3473.799805	6142.904785
3473.016602	5995.076172
3472.233398	6083.484863
3471.450195	5977.198730
3470.666992	6138.968262
3469.882813	6055.039063
3469.099609	6079.586426
3468.315430	6212.558105
3467.531250	5946.901855
3466.747070	6086.228516
3465.962891	5884.430176
3465.178711	5998.224609
3464.394531	5987.703613
3463.609375	5913.462891
3462.825195	6055.868164
3462.040039	6230.079102
3461.254883	6184.496094
3460.469727	5814.150391
3459.684570	5972.397461
3458.899414	5968.257324
3458.113281	6062.777832
3457.328125	5998.165039
3456.541992	6057.653320
3455.755859	5977.156738
3454.969727	5988.920898
3454.183594	6061.101074
3453.397461	5945.667969
3452.611328	6017.831543
3451.824219	5762.588867
3451.038086	5945.987305
3450.250977	5906.905273
3449.463867	6007.621094
3448.676758	6101.951660
3447.889648	5669.046387
3447.102539	5922.171875
3446.315430	5895.823242
3445.527344	5917.099121
3444.740234	5789.194824
3443.952148	5747.012695
3443.164063	5873.007324
3442.375977	5700.757813
3441.587891	5823.546875
3440.799805	5901.897461
3440.011719	5821.680176
3439.222656	5763.681152
3438.434570	5927.588379
3437.645508	5704.785645
3436.856445	5855.974609
3436.067383	5848.699219
3435.278320	5949.131836
3434.489258	5675.791016
3433.699219	5760.384277
3432.910156	5791.124023
3432.120117	5628.741211
3431.330078	5722.796875
3430.540039	5737.703613
3429.750000	5758.933594
3428.959961	5913.033691
3428.169922	5817.188965
3427.378906	5715.049316
3426.588867	5888.055664
3425.797852	5773.290039
3425.006836	5848.233398
3424.215820	5701.903809
3423.424805	5710.470703
3422.633789	5545.251465
3421.842773	5566.477051
3421.050781	5764.581055
3420.259766	5668.912109
3419.467773	5734.314453
3418.675781	5641.837402
3417.883789	5757.729004
3417.091797	5725.244629
3416.299805	5695.926270
3415.506836	5641.375977
3414.714844	5735.110352
3413.921875	5481.861816
3413.128906	5733.271973
3412.336914	5662.984375
3411.543945	5381.495117
3410.750000	5478.347656
3409.957031	5704.383789
3409.164063	5590.030273
3408.370117	5661.597656
3407.576172	5591.388184
