#Wave		#Intensity
4002.114258	4406.350586
4001.416016	4549.530273
4000.717773	4419.958008
4000.018555	4526.597656
3999.320313	4400.648438
3998.621094	4636.035645
3997.921875	4588.794922
3997.223633	4559.449219
3996.524414	4315.584961
3995.824219	4522.234863
3995.125000	4628.737305
3994.425781	4567.240234
3993.725586	4637.969238
3993.026367	4537.191406
3992.326172	4654.338867
3991.625977	4521.447754
3990.925781	4492.154297
3990.225586	4477.150879
3989.525391	4355.061035
3988.825195	4425.744141
3988.125000	4503.541992
3987.423828	4424.322266
3986.723633	4580.578125
3986.022461	4526.339355
3985.321289	4400.791992
3984.620117	4603.330566
3983.918945	4563.374512
3983.217773	4430.752441
3982.516602	4462.116211
3981.814453	4440.019043
3981.113281	4506.999512
3980.411133	4613.143555
3979.708984	4630.210938
3979.006836	4519.072266
3978.304688	4372.363281
3977.602539	4485.580078
3976.900391	4484.859863
3976.198242	4501.933594
3975.495117	4547.467773
3974.792969	4536.063965
3974.089844	4453.521484
3973.386719	4534.606445
3972.683594	4327.631348
3971.980469	4636.256836
3971.277344	4415.111816
3970.574219	4481.933594
3969.870117	4449.230469
3969.166992	4519.578613
3968.462891	4422.933594
3967.759766	4578.510254
3967.055664	4602.634766
3966.351563	4427.904297
3965.647461	4384.589355
3964.943359	4611.066406
3964.238281	4603.227539
3963.534180	4545.710938
3962.829102	4513.048828
3962.125000	4427.186035
3961.419922	4522.239746
3960.714844	4521.513672
3960.009766	4499.513184
3959.304688	4495.245117
3958.599609	4480.344727
3957.893555	4476.081543
3957.188477	4454.102051
3956.482422	4442.757813
3955.777344	4558.940430
3955.071289	4515.707520
3954.365234	4539.770020
3953.659180	4365.552246
3952.953125	4619.732910
3952.246094	4431.399902
3951.540039	4398.837891
3950.833008	4352.133301
3950.126953	4609.690430
3949.419922	4396.719238
3948.712891	4487.965332
3948.005859	4444.812012
3947.298828	4546.626953
3946.591797	4425.709961
3945.884766	4414.396484
3945.176758	4562.105957
3944.469727	4533.107910
3943.761719	4366.345703
3943.053711	4531.652344
3942.345703	4548.582031
3941.637695	4523.135254
3940.929688	4388.254395
3940.221680	4532.271973
3939.513672	4453.900879
3938.804688	4499.058594
3938.095703	4445.414551
3937.387695	4585.802734
3936.678711	4461.622070
3935.969727	4372.745605
3935.260742	4495.448242
3934.551758	4311.412109
3933.841797	4483.430664
3933.132813	4507.379883
3932.422852	4429.137207
3931.713867	4410.811035
3931.003906	4420.670410
3930.293945	4571.401855
3929.583984	4299.526367
3928.874023	4453.749023
3928.164063	4361.509277
3927.453125	4406.564453
3926.743164	4455.123535
3926.032227	4559.963379
3925.322266	4393.888672
3924.611328	4308.766602
3923.900391	4561.284180
3923.189453	4550.003418
3922.478516	4348.879883
3921.766602	4530.967285
3921.055664	4410.745605
3920.344727	4406.523438
3919.632813	4465.543945
3918.920898	4471.853027
3918.208984	4562.454590
3917.497070	4509.046387
3916.785156	4378.410156
3916.073242	4374.196777
3915.361328	4394.554688
3914.648438	4428.943848
3913.936523	4259.805664
3913.223633	4452.080566
3912.510742	4384.718262
3911.797852	4569.896973
3911.084961	4506.043457
3910.372070	4284.437012
3909.659180	4483.564453
3908.945313	4496.864258
3908.232422	4376.993164
3907.518555	4446.367188
3906.804688	4400.111328
3906.091797	4360.875488
3905.377930	4265.617188
3904.663086	4310.453613
3903.949219	4495.315918
3903.235352	4253.062500
3902.520508	4294.378906
3901.806641	4454.659180
3901.091797	4348.980957
3900.376953	4470.720703
3899.662109	4347.585449
3898.947266	4423.823730
3898.232422	4507.030762
3897.517578	4464.355469
3896.802734	4411.208008
3896.086914	4553.789063
3895.372070	4322.435059
3894.656250	4566.302734
3893.940430	4362.966309
3893.224609	4439.103516
3892.508789	4386.010254
3891.792969	4552.897949
3891.076172	4450.930664
3890.360352	4328.053223
3889.643555	4498.359375
3888.927734	4525.551758
3888.210938	4542.269043
3887.494141	4482.241699
3886.777344	4530.348633
3886.060547	4515.673828
3885.342773	4281.357422
3884.625977	4458.450684
3883.909180	4394.999023
3883.191406	4422.172363
3882.473633	4379.652344
3881.755859	4441.655273
3881.038086	4587.232422
3880.320313	4440.229980
3879.602539	4543.977051
3878.884766	4515.396484
3878.166016	4584.289063
3877.448242	4513.947754
3876.729492	4506.264160
3876.010742	4463.791016
3875.291992	4421.331543
3874.573242	4375.407227
3873.854492	4503.373047
3873.135742	4586.097168
3872.416016	4498.451660
3871.697266	4466.447754
3870.977539	4424.027832
3870.257813	4638.750488
3869.539063	4446.927734
3868.819336	4526.106934
3868.099609	4396.878418
3867.378906	4420.480469
3866.659180	4475.322266
3865.938477	4606.516602
3865.218750	4300.345703
3864.498047	4476.639160
3863.777344	4663.285156
3863.056641	4416.227539
3862.335938	4412.050293
3861.615234	4484.171387
3860.894531	4431.439941
3860.173828	4701.149414
3859.452148	4468.148438
3858.730469	4377.320801
3858.009766	4473.645508
3857.288086	4341.269531
3856.566406	4492.995605
3855.844727	4516.520020
3855.122070	4508.869629
3854.400391	4508.145996
3853.678711	4379.332031
3852.956055	4572.466309
3852.233398	4398.691895
3851.510742	4415.288086
3850.788086	4321.167969
3850.065430	4628.338867
3849.342773	4523.838867
3848.620117	4457.410156
3847.896484	4439.408203
3847.173828	4359.186523
3846.450195	4344.662109
3845.727539	4468.374512
3845.003906	4426.194824
3844.280273	4577.492188
3843.555664	4549.125000
3842.832031	4406.797363
3842.108398	4409.543945
3841.383789	4436.456543
3840.660156	4459.908691
3839.935547	4497.158691
3839.210938	4458.478516
3838.486328	4606.125488
3837.761719	4501.895020
3837.037109	4380.451660
3836.312500	4579.769531
3835.586914	4448.008301
3834.862305	4509.350098
3834.136719	4460.369629
3833.411133	4401.065430
3832.685547	4410.697266
3831.959961	4358.310547
3831.234375	4429.951172
3830.508789	4467.126953
3829.782227	4363.101074
3829.056641	4479.466797
3828.330078	4492.518555
3827.603516	4330.024902
3826.876953	4343.096191
3826.150391	4476.594238
3825.423828	4482.757324
3824.697266	4698.744629
3823.970703	4546.665039
3823.243164	4453.091797
3822.516602	4407.681641
3821.789063	4616.667480
3821.061523	4354.712891
3820.333984	4505.219727
3819.606445	4483.881836
3818.878906	4510.645996
3818.151367	4475.574219
3817.422852	4426.776855
3816.695313	4587.452148
3815.966797	4590.149414
3815.238281	4520.761230
3814.509766	4451.395020
3813.781250	4436.955078
3813.052734	4587.206543
3812.324219	4531.584473
3811.595703	4496.559082
3810.866211	4451.256836
3810.136719	4450.542969
3809.408203	4576.673828
3808.678711	4527.952637
3807.949219	4654.030273
3807.219727	4416.850586
3806.489258	4532.626953
3805.759766	4490.794922
3805.030273	4335.953125
3804.299805	4496.203613
3803.569336	4420.158691
3802.839844	4388.640625
3802.109375	4524.846191
3801.378906	4599.408691
3800.647461	4540.503418
3799.916992	4488.459473
3799.186523	4405.646973
3798.455078	4572.520020
3797.723633	4373.459473
3796.993164	4389.852539
3796.261719	4341.291992
3795.530273	4446.547852
3794.798828	4380.907227
3794.066406	4349.454590
3793.334961	4563.975098
3792.602539	4641.802246
3791.871094	4456.645020
3791.138672	4428.614746
3790.406250	4513.253418
3789.673828	4461.329102
3788.941406	4358.227539
3788.208984	4760.182617
3787.476563	4428.477539
3786.743164	4526.693359
3786.010742	4536.199707
3785.277344	4439.988770
3784.543945	4558.612793
3783.810547	4551.063965
3783.077148	4543.517090
3782.343750	4607.540039
3781.610352	4555.690430
3780.875977	4466.381836
3780.142578	4353.257813
3779.408203	4471.761719
3778.673828	4484.665527
3777.939453	4443.090820
3777.205078	4490.036133
3776.470703	4417.841797
3775.736328	4529.433594
3775.000977	4426.632813
3774.266602	4534.785156
3773.531250	4642.903320
3772.795898	4659.163086
3772.061523	4508.802734
3771.326172	4504.680664
3770.589844	4435.974121
3769.854492	4516.831055
3769.119141	4478.728027
3768.382813	4471.214844
3767.647461	4497.674316
3766.911133	4541.107910
3766.174805	4486.044922
3765.438477	4702.631836
3764.702148	4586.452637
3763.965820	4656.998047
3763.229492	4568.013672
3762.492188	4584.247559
3761.755859	4373.166992
3761.018555	4525.111816
3760.281250	4500.645508
3759.543945	4499.924316
3758.806641	4441.564453
3758.069336	4620.520508
3757.332031	4504.540039
3756.593750	4605.484375
3755.856445	4567.474609
3755.118164	4532.864258
3754.379883	4505.040039
3753.641602	4483.997559
3752.903320	4537.457520
3752.165039	4557.043945
3751.426758	4580.009277
3750.688477	4586.044434
3749.949219	4527.781738
3749.210938	4662.394043
3748.471680	4489.118164
3747.732422	4654.134766
3746.993164	4592.516113
3746.253906	4554.585938
3745.514648	4624.851563
3744.774414	4536.225098
3744.035156	4731.518555
3743.294922	4541.529785
3742.554688	4540.801758
3741.815430	4529.939941
3741.075195	4451.531738
3740.334961	4552.126953
3739.593750	4608.796387
3738.853516	4591.178223
3738.113281	4614.069824
3737.372070	4593.082031
3736.630859	4615.965332
3735.890625	4642.215332
3735.149414	4597.620117
3734.408203	4718.297852
3733.666016	4606.263184
3732.924805	4757.244141
3732.183594	4709.288086
3731.441406	4674.828613
3730.699219	4630.270508
3729.958008	4676.699707
3729.215820	4665.843750
3728.473633	4570.783691
3727.731445	4590.257813
3726.988281	4616.459961
3726.246094	4669.587402
3725.502930	4621.712891
3724.760742	4627.703613
3724.017578	4583.216309
3723.274414	4602.668945
3722.531250	4437.096191
3721.788086	4688.643555
3721.044922	4610.545410
3720.300781	4717.402344
3719.557617	4639.324219
3718.813477	4742.780762
3718.070313	4705.052734
3717.326172	4795.024414
3716.582031	4797.615723
3715.837891	4793.487793
3715.092773	4691.961914
3714.348633	4758.371094
3713.604492	4636.737793
3712.859375	4780.345215
3712.114258	4699.024414
3711.369141	4909.693848
3710.624023	4727.717285
3709.878906	4834.314453
3709.133789	4732.910645
3708.388672	4685.199707
3707.642578	4630.797363
3706.897461	4723.930664
3706.151367	4823.738281
3705.405273	4742.526367
3704.659180	4895.916016
3703.913086	4673.996094
3703.166992	4676.597168
3702.420898	4853.369141
3701.673828	4685.145508
3700.927734	4761.407715
3700.180664	4770.688477
3699.433594	4719.714355
3698.687500	4899.684082
3697.940430	4908.937500
3697.192383	4888.076660
3696.445313	4873.913086
3695.698242	4866.442871
3694.950195	4869.007324
3694.202148	4734.484375
3693.455078	4864.104004
3692.707031	4799.817383
3691.958984	4956.120117
3691.210938	4821.669434
3690.461914	4947.850098
3689.713867	4980.460938
3688.964844	4952.944336
3688.216797	4845.293945
3687.467773	4864.550293
3686.718750	4967.255371
3685.969727	4859.653809
3685.220703	4852.201172
3684.471680	4951.521484
3683.721680	4907.359375
3682.972656	5019.981445
3682.222656	4825.747070
3681.473633	4988.362793
3680.723633	5044.240234
3679.973633	4936.763184
3679.223633	4952.636719
3678.472656	5035.151367
3677.722656	5120.971680
3676.972656	4996.894043
3676.221680	5039.393066
3675.470703	4848.764648
3674.719727	5037.778320
3673.968750	5106.883301
3673.217773	5132.693848
3672.466797	5138.527344
3671.715820	5027.895508
3670.963867	5053.706055
3670.212891	5139.384277
3669.460938	5045.435059
3668.708984	5027.999512
3667.957031	5077.066895
3667.205078	5222.524414
3666.453125	5088.735352
3665.701172	5107.020020
3664.948242	5125.304688
3664.196289	5143.588867
3663.443359	5161.873535
3662.690430	5303.855469
3661.937500	5472.356445
3661.184570	5219.154297
3660.431641	5331.182617
3659.678711	5303.776367
3658.924805	5425.710449
3658.171875	5537.651367
3657.417969	5453.828613
3656.664063	5429.736816
3655.910156	5349.274414
3655.156250	5437.944336
3654.402344	5384.028809
3653.648438	5512.441895
3652.893555	5468.473633
3652.139648	5580.263184
3651.384766	5585.995605
3650.629883	5598.351074
3649.875000	5408.664551
3649.120117	5629.673340
3648.365234	5612.215820
3647.610352	5505.380371
3646.854492	5669.997559
3646.099609	5642.613770
3645.343750	5641.709473
3644.587891	5763.216309
3643.832031	5692.827637
3643.076172	5711.759766
3642.320313	5803.435059
3641.564453	5749.604980
3640.808594	5728.849609
3640.051758	5879.971680
3639.294922	5826.154785
3638.539063	5835.133789
3637.782227	5715.268555
3637.025391	5793.626953
3636.267578	5868.657715
3635.510742	5795.072754
3634.753906	5975.727539
3633.996094	5991.274902
3633.239258	6039.821777
3632.481445	6052.053711
3631.723633	6067.581055
3630.965820	5848.884277
3630.208008	6065.637207
3629.449219	6064.665527
3628.691406	6073.585938
3627.933594	5980.303711
3627.174805	6074.936035
3626.416016	6153.059570
3625.657227	6138.893066
3624.898438	6233.454102
3624.139648	6222.573242
3623.380859	6188.640625
3622.621094	6026.289551
3621.862305	6324.943848
3621.102539	6383.186523
3620.342773	6132.012207
3619.583984	6134.320801
3618.824219	6301.149414
3618.063477	6155.384766
3617.303711	6364.917969
3616.543945	6347.454102
3615.783203	6517.429199
3615.023438	6338.844727
3614.262695	6337.829590
3613.501953	6353.232422
3612.741211	6368.635742
3611.980469	6384.038574
3611.219727	6399.441406
3610.458008	6414.844238
3609.697266	6430.247559
3608.935547	6445.650391
3608.173828	6474.165039
3607.412109	6568.321289
3606.650391	6304.709473
3605.888672	6477.617188
3605.126953	6719.369141
3604.365234	6409.933594
3603.602539	6490.903809
3602.839844	6584.965820
3602.078125	6603.583984
3601.315430	6543.516113
3600.552734	6539.189941
3599.790039	6515.201660
3599.026367	6733.699707
3598.263672	6598.295898
3597.500000	6580.860352
3596.737305	6357.094727
3595.973633	6768.681152
3595.209961	6499.119141
3594.446289	6393.323242
3593.682617	6654.144531
3592.918945	6551.629395
3592.154297	6521.131836
3591.390625	6614.960449
3590.625977	6571.377930
3589.861328	6534.350586
3589.096680	6732.769043
3588.332031	6640.146973
3587.567383	6560.630371
3586.802734	6693.581543
3586.038086	6610.813477
3585.272461	6606.487305
3584.506836	6559.693848
3583.742188	6610.903320
3582.976563	6766.599121
3582.210938	6683.885254
3581.445313	6565.285645
3580.678711	6681.743652
3579.913086	6556.654785
3579.146484	6415.290527
3578.380859	6681.795410
3577.614258	6651.366211
3576.847656	6725.316406
3576.081055	6557.926758
3575.314453	6732.943359
3574.547852	6565.605469
3573.780273	6398.321289
3573.013672	6609.126953
3572.246094	6598.292969
3571.478516	6708.004395
3570.710938	6540.803711
3569.943359	6484.389160
3569.175781	6649.423340
3568.408203	6566.962891
3567.639648	6617.995117
3566.872070	6590.896973
3566.103516	6576.824219
3565.334961	6526.964844
3564.567383	6590.982910
3563.798828	6466.325195
3563.029297	6380.733398
3562.260742	6620.332031
3561.492188	6612.769043
3560.722656	6351.662109
3559.953125	6513.148438
3559.184570	6463.361816
3558.415039	6592.287598
3557.645508	6425.557129
3556.875000	6476.495605
3556.105469	6696.286133
3555.335938	6422.469238
3554.565430	6444.165527
3553.794922	6374.968750
3553.025391	6390.174805
3552.254883	6528.680176
3551.484375	6453.014160
3550.712891	6607.684082
3549.942383	6457.433105
3549.171875	6297.501953
3548.400391	6293.250977
3547.628906	6392.736816
3546.858398	6398.195313
3546.086914	6254.578613
3545.315430	6480.390137
3544.542969	6375.682617
3543.771484	6458.878906
3543.000000	6389.833008
3542.227539	6395.285156
3541.455078	6423.398926
3540.682617	6441.792480
3539.911133	6236.856934
3539.137695	6287.634277
3538.365234	6357.808594
3537.592773	6159.454590
3536.819336	6278.144043
3536.046875	6260.968262
3535.273438	6253.498047
3534.500000	6430.307617
3533.726563	6358.164063
3532.953125	6321.594727
3532.179688	6352.895508
3531.406250	6248.490234
3530.631836	6160.269531
3529.857422	6230.338867
3529.083984	6226.111328
3528.309570	6157.309082
3527.535156	6185.377441
3526.760742	6261.852539
3525.985352	6302.803223
3525.210938	6111.416504
3524.436523	6255.616699
3523.661133	6154.618164
3522.885742	6211.685059
3522.110352	6246.161133
3521.334961	6129.091309
3520.559570	6228.041504
3519.784180	6188.366699
3519.008789	6106.810059
3518.232422	6225.048828
3517.456055	6130.625977
3516.680664	6142.527832
3515.904297	6115.779297
3515.127930	6114.799805
3514.351563	6213.624023
3513.574219	6106.402344
3512.797852	6012.088379
3512.020508	6133.407227
3511.244141	6161.381348
3510.466797	6125.008301
3509.689453	6233.384277
3508.912109	6074.807129
3508.134766	6298.909668
3507.356445	5998.918945
3506.579102	6107.245117
3505.800781	6115.908203
3505.023438	5947.836426
3504.245117	6072.182129
3503.466797	6006.963867
3502.688477	6227.612793
3501.910156	6088.531250
3501.130859	5933.440430
3500.352539	6038.427246
3499.573242	6101.653809
3498.794922	6042.910645
3498.015625	5984.186035
3497.236328	5919.063965
3496.457031	6020.760254
3495.677734	6058.281250
3494.897461	5913.012207
3494.118164	6130.080078
3493.337891	5914.323242
3492.557617	6092.859863
3491.777344	5973.314453
3490.998047	5901.868164
3490.216797	6170.020020
3489.436523	5919.195313
3488.656250	5937.461914
3487.875000	6103.014648
3487.094727	6021.999512
3486.313477	5976.220703
3485.532227	5895.251465
3484.750977	6012.705078
3483.969727	5864.567383
3483.188477	6068.358887
3482.406250	6105.767578
3481.625000	5839.363281
3480.842773	6052.652344
3480.060547	6058.076172
3479.278320	6066.694824
3478.496094	5896.342285
3477.713867	6013.625000
3476.931641	6044.609863
3476.148438	5861.565430
3475.366211	6007.541016
3474.583008	5917.166016
3473.799805	5826.819824
3473.016602	5979.115234
3472.233398	5955.814453
3471.450195	5945.286621
3470.666992	5950.715332
3469.882813	5844.484375
3469.099609	6079.586426
3468.315430	6018.017090
3467.531250	5857.618164
3466.747070	5898.125977
3465.962891	6018.312012
3465.178711	5908.984375
3464.394531	5978.143555
3463.609375	6012.232910
3462.825195	5918.886230
3462.040039	6007.121094
3461.254883	5967.943359
3460.469727	5960.618652
3459.684570	5845.054199
3458.899414	5805.920898
3458.113281	5715.878906
3457.328125	5899.521484
3456.541992	6013.111328
3455.755859	5945.346191
3454.969727	5842.616699
3454.183594	5873.480469
3453.397461	5847.103027
3452.611328	5830.270996
3451.824219	5994.617676
3451.038086	5882.428223
3450.250977	5919.614746
3449.463867	5804.295898
3448.676758	5806.541992
3447.889648	5856.426270
3447.102539	5912.645508
3446.315430	5873.598633
3445.527344	5898.052734
3444.740234	5722.542969
3443.952148	5797.787109
3443.164063	5847.624023
3442.375977	5802.273438
3441.587891	5693.500000
3440.799805	5863.840820
3440.011719	5726.554688
3439.222656	5925.368164
3438.434570	5791.285645
3437.645508	5793.526855
3436.856445	5855.974609
3436.067383	5731.471680
3435.278320	5607.008789
3434.489258	5621.946777
3433.699219	5877.555176
3432.910156	5778.458496
3432.120117	5612.912598
3431.330078	5729.127441
3430.540039	5826.316895
3429.750000	5822.218750
3428.959961	5675.753418
3428.169922	5836.168457
3427.378906	5708.724121
3426.588867	5701.484375
3425.797852	5719.541016
3425.006836	5652.238770
3424.215820	5752.475098
3423.424805	5735.751953
3422.633789	5684.277832
3421.842773	5784.460449
3421.050781	5609.806152
3420.259766	5542.585449
3419.467773	5715.368164
3418.675781	5654.466309
3417.883789	5827.175781
3417.091797	5725.244629
3416.299805	5579.167969
3415.506836	5717.099121
3414.714844	5672.018066
3413.921875	5749.961914
3413.128906	5597.666504
3412.336914	5732.353027
3411.543945	5460.310059
3410.750000	5702.146484
3409.957031	5676.019531
3409.164063	5763.340332
3408.370117	5667.898926
3407.576172	5673.290527
