#Wave		#Intensity
4002.114258	5827.407715
4001.416016	5748.658691
4000.717773	5830.049805
4000.018555	5925.728027
3999.320313	5928.353516
3998.621094	5777.158691
3997.921875	5747.617676
3997.223633	5861.126953
3996.524414	5792.251465
3995.824219	5701.948242
3995.125000	5876.173340
3994.425781	5721.558105
3993.725586	5763.516602
3993.026367	5926.929688
3992.326172	5822.388672
3991.625977	5825.024414
3990.925781	5745.529297
3990.225586	5912.410156
3989.525391	5740.113281
3988.825195	5753.467773
3988.125000	5988.068848
3987.423828	5758.754883
3986.723633	5672.210938
3986.022461	5806.840332
3985.321289	5816.605957
3984.620117	5640.951660
3983.918945	5878.909668
3983.217773	5906.481445
3982.516602	5983.940430
3981.814453	6018.612793
3981.113281	5935.700684
3980.411133	5785.131348
3979.708984	5791.325195
3979.006836	5786.833984
3978.304688	5896.281250
3977.602539	5906.014160
3976.900391	5794.723633
3976.198242	5932.587402
3975.495117	5871.143555
3974.792969	5877.315918
3974.089844	5808.786133
3973.386719	5786.513672
3972.683594	5842.479980
3971.980469	5980.202637
3971.277344	5847.712891
3970.574219	5768.579590
3969.870117	5860.048828
3969.166992	5852.001465
3968.462891	5801.325684
3967.759766	5803.945801
3967.055664	5824.321777
3966.351563	5951.216797
3965.647461	5758.545898
3964.943359	5796.667480
3964.238281	5756.696289
3963.534180	5823.194336
3962.829102	5907.410645
3962.125000	5867.440430
3961.419922	5912.606934
3960.714844	5705.972656
3960.009766	5889.433594
3959.304688	6001.932129
3958.599609	5752.848145
3957.893555	5950.388672
3957.188477	5821.869141
3956.482422	5597.733398
3955.777344	5926.268066
3955.071289	5815.522949
3954.365234	6009.352539
3953.659180	6150.011230
3952.953125	5926.001953
3952.246094	5850.721680
3951.540039	6062.115723
3950.833008	5855.919434
3950.126953	5823.139160
3949.419922	5829.278809
3948.712891	5941.514160
3948.005859	5661.212402
3947.298828	5819.399902
3946.591797	5966.931641
3945.884766	5902.355469
3945.176758	5721.185059
3944.469727	5833.329102
3943.761719	5698.151855
3943.053711	5870.308594
3942.345703	5908.212402
3941.637695	5910.794922
3940.929688	5863.950684
3940.221680	5923.016113
3939.513672	5915.006348
3938.804688	5868.184082
3938.095703	5902.522949
3937.387695	5749.891113
3936.678711	5928.843262
3935.969727	5797.414551
3935.260742	5775.328613
3934.551758	5806.128906
3933.841797	5787.573242
3933.132813	5790.167969
3932.422852	5694.102051
3931.713867	5960.936523
3931.003906	5910.665527
3930.293945	5941.413574
3929.583984	5901.725098
3928.874023	5777.551270
3928.164063	5896.310059
3927.453125	5715.862793
3926.743164	5781.807129
3926.032227	5970.877441
3925.322266	5917.150391
3924.611328	5902.130859
3923.900391	5908.217285
3923.189453	5742.005859
3922.478516	5853.585449
3921.766602	5747.192871
3921.055664	5820.075195
3920.344727	5864.822754
3919.632813	5895.501953
3918.920898	5915.632813
3918.208984	5791.753418
3917.497070	5790.823730
3916.785156	5782.872070
3916.073242	5767.901367
3915.361328	5749.425293
3914.648438	5783.597168
3913.936523	5951.096191
3913.223633	5939.615723
3912.510742	5798.351563
3911.797852	5755.334473
3911.084961	5985.849609
3910.372070	5778.029785
3909.659180	5787.618652
3908.945313	5783.185059
3908.232422	5729.690918
3907.518555	5620.152344
3906.804688	5853.969727
3906.091797	5958.111328
3905.377930	5876.605957
3904.663086	5788.123047
3903.949219	5794.196289
3903.235352	5716.255859
3902.520508	5991.831055
3901.806641	5959.375488
3901.091797	5884.944336
3900.376953	5796.544922
3899.662109	5823.595703
3898.947266	5780.696289
3898.232422	5839.209473
3897.517578	5834.776367
3896.802734	5798.886230
3896.086914	6060.069336
3895.372070	5912.336426
3894.656250	5785.613770
3893.940430	5833.589355
3893.224609	5787.249512
3892.508789	5852.669922
3891.792969	5827.290039
3891.076172	5826.354980
3890.360352	5888.247070
3889.643555	5803.546875
3888.927734	5914.271484
3888.210938	5742.376953
3887.494141	6006.552734
3886.777344	5845.161133
3886.060547	5910.476563
3885.342773	5804.934570
3884.625977	5866.749023
3883.909180	5949.455566
3883.191406	5809.110352
3882.473633	5964.967773
3881.755859	5904.788574
3881.038086	5970.020020
3880.320313	6038.712891
3879.602539	5863.645508
3878.884766	5914.925781
3878.166016	5767.780762
3877.448242	5951.311523
3876.729492	5811.166992
3876.010742	5775.442871
3875.291992	5760.601563
3874.573242	5919.668457
3873.854492	5810.916016
3873.135742	5837.799316
3872.416016	5833.386719
3871.697266	5905.443359
3870.977539	5890.594727
3870.257813	5854.902344
3869.539063	5951.239746
3868.819336	5988.494629
3868.099609	5876.396484
3867.378906	6024.770996
3866.659180	5964.781738
3865.938477	5786.784668
3865.218750	5942.042969
3864.498047	5927.208984
3863.777344	5815.227539
3863.056641	6081.418945
3862.335938	6052.694824
3861.615234	6034.383789
3860.894531	6043.818359
3860.173828	5911.105469
3859.452148	5733.372559
3858.730469	5923.072754
3858.009766	5804.304199
3857.288086	5997.395996
3856.566406	5878.653320
3855.844727	6040.499023
3855.122070	5939.102051
3854.400391	5920.836914
3853.678711	5919.887695
3852.956055	6047.008301
3852.233398	5907.605957
3851.510742	6027.767578
3850.788086	5888.412598
3850.065430	5845.958496
3849.342773	6087.122559
3848.620117	5913.244141
3847.896484	5967.615723
3847.173828	5942.459961
3846.450195	5941.506836
3845.727539	5978.567871
3845.003906	5918.869629
3844.280273	6038.834961
3843.555664	6079.316406
3842.832031	5985.094238
3842.108398	5852.918457
3841.383789	5934.839844
3840.660156	6016.734375
3839.935547	6015.769531
3839.210938	5973.394531
3838.486328	5899.980957
3837.761719	5988.727539
3837.037109	6049.852539
3836.312500	5948.872070
3835.586914	6061.704590
3834.862305	5712.533203
3834.136719	5901.200195
3833.411133	6076.020508
3832.685547	6061.262695
3831.959961	6015.501953
3831.234375	5983.534668
3830.508789	5996.351563
3829.782227	5826.651367
3829.056641	6049.518066
3828.330078	5955.599609
3827.603516	5947.760742
3826.876953	6201.473145
3826.150391	6007.789063
3825.423828	5996.504883
3824.697266	5902.668945
3823.970703	6018.656250
3823.243164	5986.743164
3822.516602	5965.154297
3821.789063	6081.075684
3821.061523	5853.256836
3820.333984	5886.683105
3819.606445	5902.918457
3818.878906	5970.679688
3818.151367	6010.939941
3817.422852	5735.234375
3816.695313	6098.289551
3815.966797	6028.648438
3815.238281	5945.298828
3814.509766	5958.073730
3813.781250	5953.687012
3813.052734	5932.146484
3812.324219	5838.574219
3811.595703	6108.597656
3810.866211	6011.597168
3810.136719	5979.774414
3809.408203	5906.823242
3808.678711	5940.152832
3807.949219	5812.396973
3807.219727	6157.548828
3806.489258	6122.301270
3805.759766	5926.067871
3805.030273	5949.092285
3804.299805	6064.566895
3803.569336	5984.846680
3802.839844	6001.003906
3802.109375	5931.586914
3801.378906	5862.192383
3800.647461	5895.468750
3799.916992	5901.366211
3799.186523	5924.363770
3798.455078	5896.054199
3797.723633	5946.400391
3796.993164	6054.851563
3796.261719	5992.350586
3795.530273	5851.260254
3794.798828	5939.170898
3794.066406	5958.718750
3793.334961	6080.745117
3792.602539	6185.653809
3791.871094	6116.360840
3791.138672	6033.432617
3790.406250	5930.046387
3789.673828	5949.576172
3788.941406	6006.641113
3788.208984	6043.213867
3787.476563	5960.362793
3786.743164	6089.033691
3786.010742	6094.878906
3785.277344	6005.238281
3784.543945	5959.951172
3783.810547	6054.448730
3783.077148	6090.971680
3782.343750	6032.060547
3781.610352	5962.945313
3780.875977	5992.651367
3780.142578	6066.629395
3779.408203	5926.020996
3778.673828	6047.658691
3777.939453	5920.716309
3777.205078	6175.076660
3776.470703	6218.333008
3775.736328	6047.185059
3775.000977	5954.348633
3774.266602	6011.227051
3773.531250	6132.713867
3772.795898	6036.506836
3772.061523	5940.331055
3771.326172	6289.553711
3770.589844	6006.411133
3769.854492	6192.375000
3769.119141	5970.504395
3768.382813	6020.511230
3767.647461	6036.531250
3766.911133	6066.132324
3766.174805	5925.926270
3765.438477	6196.608398
3764.702148	6137.902832
3763.965820	6089.398438
3763.229492	5959.459473
3762.492188	6138.345215
3761.755859	6147.539063
3761.018555	5987.123535
3760.281250	6128.610840
3759.543945	6141.192871
3758.806641	6150.379883
3758.069336	6169.733887
3757.332031	6195.860840
3756.593750	6072.868164
3755.856445	6126.107910
3755.118164	6230.147949
3754.379883	6019.139648
3753.641602	6302.658203
3752.903320	6095.092285
3752.165039	6090.729980
3751.426758	6187.920898
3750.688477	6176.775879
3749.949219	6338.217285
3749.210938	6134.194824
3748.471680	6136.594238
3747.732422	6162.669922
3746.993164	6236.082520
3746.253906	6153.932129
3745.514648	6000.812500
3744.774414	6226.324219
3744.035156	6073.241699
3743.294922	6193.916504
3742.554688	6125.352539
3741.815430	6218.955566
3741.075195	6356.436035
3740.334961	6189.947266
3739.593750	6215.966309
3738.853516	6245.353027
3738.113281	6261.229004
3737.372070	6044.239258
3736.630859	6070.264648
3735.890625	6258.219238
3735.149414	6085.185059
3734.408203	6171.897949
3733.666016	6187.769043
3732.924805	6126.089844
3732.183594	6121.737305
3731.441406	6285.908691
3730.699219	6301.750977
3729.958008	6176.074219
3729.215820	6168.346680
3728.473633	6224.619141
3727.731445	6344.861328
3726.988281	6266.398438
3726.246094	6235.094238
3725.502930	6388.937500
3724.760742	6330.698242
3724.017578	6302.763672
3723.274414	6385.866699
3722.531250	6196.459961
3721.788086	6336.731934
3721.044922	6157.482422
3720.300781	6237.192383
3719.557617	6333.686035
3718.813477	6265.445313
3718.070313	6462.726074
3717.326172	6223.115234
3716.582031	6386.742188
3715.837891	6399.155273
3715.092773	6371.260742
3714.348633	6205.695313
3713.604492	6339.001465
3712.859375	6374.912598
3712.114258	6253.059082
3711.369141	6352.734375
3710.624023	6247.700195
3709.878906	6280.247070
3709.133789	6165.194824
3708.388672	6315.125977
3707.642578	6404.651367
3706.897461	6249.401367
3706.151367	6328.851563
3705.405273	6307.728027
3704.659180	6407.249512
3703.913086	6449.779785
3703.166992	6294.646484
3702.420898	6461.110840
3701.673828	6299.327148
3700.927734	6432.253418
3700.180664	6411.135742
3699.433594	6296.299805
3698.687500	6449.242676
3697.940430	6274.204590
3697.192383	6249.779297
3696.445313	6255.468262
3695.698242	6398.285156
3694.950195	6410.636719
3694.202148	6332.707520
3693.455078	6288.233398
3692.707031	6243.773438
3691.958984	6336.347656
3691.210938	6348.698242
3690.461914	6524.748047
3689.713867	6333.302734
3688.964844	6305.569336
3688.216797	6441.469727
3687.467773	6400.372559
3686.718750	6396.008789
3685.969727	6431.698242
3685.220703	6444.016602
3684.471680	6369.578613
3683.721680	6351.877930
3682.972656	6490.952637
3682.222656	6576.622559
3681.473633	6388.838867
3680.723633	6314.468750
3679.973633	6293.456543
3679.223633	6575.741699
3678.472656	6501.376953
3677.722656	6490.339844
3676.972656	6429.337402
3676.221680	6404.992188
3675.470703	6330.701660
3674.719727	6512.818848
3673.968750	6395.255859
3673.217773	6417.531250
3672.466797	6463.096191
3671.715820	6448.750488
3670.963867	6477.660156
3670.212891	6493.254883
3669.460938	6522.147949
3668.708984	6441.293457
3667.957031	6486.809570
3667.205078	6642.013672
3666.453125	6504.673828
3665.701172	6573.420410
3664.948242	6731.858398
3664.196289	6538.092285
3663.443359	6613.442871
3662.690430	6572.529785
3661.937500	6614.644531
3661.184570	6706.546875
3660.431641	6562.732422
3659.678711	6581.594727
3658.924805	6514.170898
3658.171875	6612.665527
3657.417969	6621.558594
3656.664063	6700.102539
3655.910156	6536.528320
3655.156250	6571.955078
3654.402344	6597.424316
3653.648438	6616.255859
3652.893555	6724.565430
3652.139648	6627.391113
3651.384766	6709.158203
3650.629883	6797.524414
3649.875000	6743.441895
3649.120117	6792.035156
3648.365234	6860.479004
3647.610352	6832.895508
3646.854492	6881.450684
3646.099609	6992.869629
3645.343750	6664.166016
3644.587891	6686.257324
3643.832031	6883.657715
3643.076172	6687.422363
3642.320313	6884.758789
3641.564453	6867.124512
3640.808594	6793.298340
3640.051758	6848.398438
3639.294922	6880.348145
3638.539063	6733.863281
3637.782227	7030.110352
3637.025391	6886.951172
3636.267578	6892.453125
3635.510742	6831.912109
3634.753906	6903.450684
3633.996094	6994.771973
3633.239258	6861.633789
3632.481445	6989.231445
3631.723633	6915.524902
3630.965820	6940.808105
3630.208008	6840.746094
3629.449219	7080.389648
3628.691406	7059.471680
3627.933594	7130.869629
3627.174805	6925.361328
3626.416016	7016.531250
3625.657227	7051.653809
3624.898438	7139.479492
3624.139648	7273.394043
3623.380859	6962.632324
3622.621094	7234.840332
3621.862305	7151.368164
3621.102539	7107.426758
3620.342773	7070.081543
3619.583984	7177.550293
3618.824219	7127.043945
3618.063477	7320.005859
3617.303711	7039.237305
3616.543945	7189.395996
3615.783203	7230.992188
3615.023438	7295.589355
3614.262695	7287.846191
3613.501953	7109.195313
3612.741211	7354.521484
3611.980469	7113.489258
3611.219727	7335.739746
3610.458008	7078.363770
3609.697266	7310.400879
3608.935547	7230.423828
3608.173828	7344.172363
3607.412109	7418.493652
3606.650391	7414.022949
3605.888672	7488.309082
3605.126953	7428.052734
3604.365234	7262.841797
3603.602539	7009.126465
3602.839844	7326.102051
3602.078125	7315.092285
3601.315430	7290.972168
3600.552734	7542.193848
3599.790039	7344.349609
3599.026367	7271.084961
3598.263672	7276.472168
3597.500000	7278.582520
3596.737305	7352.745117
3595.973633	7269.701172
3595.209961	7278.358887
3594.446289	7496.523438
3593.682617	7629.518066
3592.918945	7513.756836
3592.154297	7394.760742
3591.390625	7468.820313
3590.625977	7483.978516
3589.861328	7381.395996
3589.096680	7128.429199
3588.332031	7499.998535
3587.567383	7390.924316
3586.802734	7393.008789
3586.038086	7238.236328
3585.272461	7230.541992
3584.506836	7337.187500
3583.742188	7398.070801
3582.976563	7439.340332
3582.210938	7408.761719
3581.445313	7489.191895
3580.678711	7468.407227
3579.913086	7297.501465
3579.146484	7198.438477
3578.380859	7503.969238
3577.614258	7620.202148
3576.847656	7547.227051
3576.081055	7428.621094
3575.314453	7378.523438
3574.547852	7211.082031
3573.780273	7428.310547
3573.013672	7388.013184
3572.246094	7494.357422
3571.478516	7392.162109
3570.710938	7501.728516
3569.943359	7402.821289
3569.175781	7274.638184
3568.408203	7322.310059
3567.639648	7262.541992
3566.872070	7446.899902
3566.103516	7260.214844
3565.334961	7496.573730
3564.567383	7485.612793
3563.798828	7533.204102
3563.029297	7489.719238
3562.260742	7403.976563
3561.492188	7500.323730
3560.722656	7443.862305
3559.953125	7523.921387
3559.184570	7613.703613
3558.415039	7359.059082
3557.645508	7426.099121
3556.875000	7369.693359
3556.105469	7362.017578
3555.335938	7023.155273
3554.565430	7333.687500
3553.794922	7423.397949
3553.025391	7354.055664
3552.254883	7300.959473
3551.484375	7617.736328
3550.712891	7243.475098
3549.942383	7290.964355
3549.171875	7276.825195
3548.400391	7239.994141
3547.628906	7410.647461
3546.858398	7192.297363
3546.086914	7330.495605
3545.315430	7283.958496
3544.542969	7195.320313
3543.771484	7372.321289
3543.000000	7316.083496
3542.227539	7091.480957
3541.455078	7294.313477
3540.682617	7387.020508
3539.911133	7363.180664
3539.137695	7187.254883
3538.365234	7208.751953
3537.592773	7285.237305
3536.819336	7051.187012
3536.046875	7260.265137
3535.273438	7242.934570
3534.500000	7390.489258
3533.726563	7179.198242
3532.953125	7265.309082
3532.179688	7202.749023
3531.406250	7195.133301
3530.631836	7184.289551
3529.857422	7199.287598
3529.083984	7336.994629
3528.309570	7196.980957
3527.535156	7483.144043
3526.760742	7314.102051
3525.985352	7332.293457
3525.210938	7108.474609
3524.436523	7136.371582
3523.661133	7228.773438
3522.885742	7179.237305
3522.110352	7123.268066
3521.334961	7351.040527
3520.559570	7243.483398
3519.784180	7219.761230
3519.008789	7292.723633
3518.232422	7185.227051
3517.456055	7238.842285
3516.680664	7128.166992
3515.904297	7201.096680
3515.127930	7225.703125
3514.351563	7028.156250
3513.574219	7072.095703
3512.797852	6987.282715
3512.020508	7092.355469
3511.244141	7316.439453
3510.466797	7299.182617
3509.689453	7179.006348
3508.912109	7142.480957
3508.134766	7195.998047
3507.356445	7233.423340
3506.579102	7367.266602
3505.800781	7170.042969
3505.023438	7143.187500
3504.245117	7077.787109
3503.466797	7298.300293
3502.688477	7094.789551
3501.910156	7045.483887
3501.130859	7066.830078
3500.352539	7145.953613
3499.573242	7234.680176
3498.794922	7085.897949
3498.015625	7104.014648
3497.236328	7231.203125
3496.457031	7156.268555
3495.677734	7222.471680
3494.897461	7189.248047
3494.118164	7024.584473
3493.337891	7238.233887
3492.557617	7086.435059
3491.777344	7287.187500
3490.998047	7221.938965
3490.216797	7259.224121
3489.436523	7261.263672
3488.656250	7279.315430
3487.875000	7246.128906
3487.094727	7164.930664
3486.313477	7214.998047
3485.532227	7127.429688
3484.750977	7078.288086
3483.969727	7221.128418
3483.188477	7079.218750
3482.406250	7269.989258
3481.625000	7172.887207
3480.842773	7213.303711
3480.060547	7093.863770
3479.278320	7204.599609
3478.496094	7171.486328
3477.713867	7365.252930
3476.931641	7303.371094
3476.148438	7276.645996
3475.366211	7192.441406
3474.583008	7287.087402
3473.799805	6976.220215
3473.016602	7195.368652
3472.233398	7283.584473
3471.450195	7454.744629
3470.666992	7140.858398
3469.882813	7114.191895
3469.099609	7304.434570
3468.315430	7000.290039
3467.531250	7254.263184
3466.747070	7160.643555
3465.962891	7184.997559
3465.178711	7187.033203
3464.394531	7224.121094
3463.609375	7092.332031
3462.825195	7135.794434
3462.040039	7268.425293
3461.254883	7254.521973
3460.469727	7008.184570
3459.684570	7284.032715
3458.899414	7228.753418
3458.113281	7284.880859
3457.328125	7188.251953
3456.541992	7218.915527
3455.755859	7313.189453
3454.969727	7175.254883
3454.183594	7269.505371
3453.397461	7233.365723
3452.611328	7381.619141
3451.824219	7335.937500
3451.038086	7223.532715
3450.250977	7231.907227
3449.463867	7259.340820
3448.676758	7312.177246
3447.889648	7193.495605
3447.102539	7376.517578
3446.315430	7359.460449
3445.527344	7263.048828
3444.740234	7255.537109
3443.952148	7343.229004
3443.164063	7297.631836
3442.375977	7271.083008
3441.587891	7257.230469
3440.799805	7230.696289
3440.011719	7441.984375
3439.222656	7155.460938
3438.434570	7138.464844
3437.645508	7235.569824
3436.856445	7253.422852
3436.067383	7499.388672
3435.278320	7023.016602
3434.489258	7344.954590
3433.699219	7318.443359
3432.910156	7038.637695
3432.120117	7217.958496
3431.330078	7153.496094
3430.540039	7253.622070
3429.750000	7328.401367
3428.959961	7282.934082
3428.169922	7199.522949
3427.378906	7315.389648
3426.588867	7247.810547
3425.797852	7221.354980
3425.006836	7403.547363
3424.215820	7193.754395
3423.424805	7379.052734
3422.633789	7393.668457
3421.842773	7266.116211
3421.050781	7135.445801
3420.259766	7257.470703
3419.467773	7224.730957
3418.675781	7255.144043
3417.883789	7168.751465
3417.091797	7110.791992
3416.299805	7235.877441
3415.506836	7256.803711
3414.714844	7176.774902
3413.921875	7159.854004
3413.128906	7206.010254
3412.336914	7176.477051
3411.543945	7206.853027
3410.750000	7230.914551
3409.957031	6905.141113
3409.164063	7171.876465
3408.370117	7236.889160
3407.576172	7311.331055
