#Wave		#Intensity
4002.113281	6439.498047
4001.415039	6582.677734
4000.716797	6538.672852
4000.017578	6190.523438
3999.319336	6393.460938
3998.620117	6442.513672
3997.920898	6602.425781
3997.221680	6411.834961
3996.522461	6282.087891
3995.823242	6363.300781
3995.124023	6573.162598
3994.424805	6429.156738
3993.724609	6556.757324
3993.025391	6527.123047
3992.325195	6429.629883
3991.625000	6603.597168
3990.924805	6338.291992
3990.224609	6447.952637
3989.524414	6325.545898
3988.824219	6449.449707
3988.124023	6523.353516
3987.422852	6582.960938
3986.721680	6482.015625
3986.021484	6466.706543
3985.320313	6661.812988
3984.619141	6428.971680
3983.917969	6616.890625
3983.216797	6498.196777
3982.514648	6390.233398
3981.813477	6414.150391
3981.112305	6473.687988
3980.410156	6511.833008
3979.708008	6471.608398
3979.005859	6648.625000
3978.303711	6619.072266
3977.601563	6479.169434
3976.899414	6414.059082
3976.197266	6512.676270
3975.494141	6468.930664
3974.791992	6425.199219
3974.088867	6552.223633
3973.385742	6508.492188
3972.682617	6464.774902
3971.979492	6467.291992
3971.276367	6491.136719
3970.573242	6319.489258
3969.869141	6592.108887
3969.166016	6253.502930
3968.461914	6572.228516
3967.758789	6407.781250
3967.054688	6445.817383
3966.350586	6565.510742
3965.646484	6447.297363
3964.941406	6609.547852
3964.237305	6572.995117
3963.533203	6657.104980
3962.828125	6436.060059
3962.124023	6534.354004
3961.418945	6664.538086
3960.713867	6425.866699
3960.008789	6531.206055
3959.303711	6466.344238
3958.598633	6433.404785
3957.892578	6439.459473
3957.187500	6424.251465
3956.481445	6504.705566
3955.776367	6514.288086
3955.070313	6410.531738
3954.364258	6416.584473
3953.658203	6461.581543
3952.952148	6333.103027
3952.245117	6569.229492
3951.539063	6302.757813
3950.832031	6496.353516
3950.125977	6551.914063
3949.418945	6515.490234
3948.711914	6468.467773
3948.004883	6555.830078
3947.297852	6515.887207
3946.590820	6401.723633
3945.883789	6418.367676
3945.175781	6406.735352
3944.468750	6363.308105
3943.760742	6436.472168
3943.052734	6499.015625
3942.344727	6727.520020
3941.636719	6606.388184
3940.928711	6520.598145
3940.220703	6463.074219
3939.511719	6479.683105
3938.803711	6482.171387
3938.094727	6537.580078
3937.386719	6490.672363
3936.677734	6500.211426
3935.968750	6513.272949
3935.259766	6572.166504
3934.550781	6521.757813
3933.840820	6566.531738
3933.131836	6614.815430
3932.421875	6469.287109
3931.712891	6482.340332
3931.002930	6488.344727
3930.292969	6526.043457
3929.583008	6514.432129
3928.873047	6365.514648
3928.163086	6357.452148
3927.452148	6433.863281
3926.742188	6408.197266
3926.031250	6537.352539
3925.321289	6437.801270
3924.610352	6447.319824
3923.899414	6432.217773
3923.188477	6522.606934
3922.477539	6591.873535
3921.765625	6379.909180
3921.054688	6255.875977
3920.342773	6427.056641
3919.631836	6566.561523
3918.919922	6435.532227
3918.208008	6378.302734
3917.496094	6661.728027
3916.784180	6474.567383
3916.072266	6441.932617
3915.359375	6630.440430
3914.647461	6503.035156
3913.934570	6575.678223
3913.222656	6448.322754
3912.509766	6436.764648
3911.796875	6565.498047
3911.083984	6508.337891
3910.371094	6461.714355
3909.658203	6586.875977
3908.944336	6350.986816
3908.231445	6462.107910
3907.517578	6415.520996
3906.803711	6425.000977
3906.089844	6515.040527
3905.375977	6510.492676
3904.662109	6390.394043
3903.948242	6445.384766
3903.234375	6353.338379
3902.519531	6534.313477
3901.805664	6491.272949
3901.090820	6577.700684
3900.375977	6440.214355
3899.661133	6495.143555
3898.946289	6403.176758
3898.231445	6569.982910
3897.516602	6327.706543
3896.801758	6515.443359
3896.085938	6633.222656
3895.370117	6523.834961
3894.655273	6599.650391
3893.939453	6549.687012
3893.223633	6545.143066
3892.507813	6568.537109
3891.791992	6476.704590
3891.075195	6304.609863
3890.359375	6561.885254
3889.642578	6578.281738
3888.925781	6378.338867
3888.209961	6464.532715
3887.493164	6585.579590
3886.776367	6588.010742
3886.059570	6524.187500
3885.341797	6306.980957
3884.625000	6490.721191
3883.907227	6451.341309
3883.190430	6544.394531
3882.472656	6525.923828
3881.754883	6409.916016
3881.037109	6259.114746
3880.319336	6630.741699
3879.601563	6518.254395
3878.883789	6607.725586
3878.165039	6512.682129
3877.447266	6535.999512
3876.728516	6677.620117
3876.009766	6593.048340
3875.291016	6585.033691
3874.572266	6389.205566
3873.853516	6579.443359
3873.134766	6491.463867
3872.415039	6556.474121
3871.696289	6569.325684
3870.976563	6547.419922
3870.256836	6511.622559
3869.537109	6427.197754
3868.817383	6620.688965
3868.097656	6522.381348
3867.377930	6573.422363
3866.658203	6742.492676
3865.937500	6633.798340
3865.217773	6563.317871
3864.497070	6614.318848
3863.776367	6422.423828
3863.055664	6376.294922
3862.334961	6364.866211
3861.614258	6450.546387
3860.893555	6706.104980
3860.171875	6486.613281
3859.451172	6523.702637
3858.729492	6609.301270
3858.007813	6455.770020
3857.287109	6399.299316
3856.565430	6568.016113
3855.842773	6459.591309
3855.121094	6604.002441
3854.399414	6561.393555
3853.676758	6754.208496
3852.955078	6479.677246
3852.232422	6679.365234
3851.509766	6657.532227
3850.787109	6428.124023
3850.064453	6541.245117
3849.341797	6571.323242
3848.619141	6559.895020
3847.895508	6697.142090
3847.172852	6409.143066
3846.449219	6601.672363
3845.725586	6742.301758
3845.001953	6637.562500
3844.278320	6563.949219
3843.554688	6790.870605
3842.831055	6492.771973
3842.107422	6584.962891
3841.382813	6518.309570
3840.659180	6620.822266
3839.934570	6498.961914
3839.209961	6563.485352
3838.485352	6669.391602
3837.760742	6716.618164
3837.036133	6605.167480
3836.310547	6569.622070
3835.585938	6534.087891
3834.860352	6653.702637
3834.135742	6587.143555
3833.410156	6565.408691
3832.684570	6488.546875
3831.958984	6559.857910
3831.233398	6593.253418
3830.507813	6723.075684
3829.781250	6518.822266
3829.055664	6479.903320
3828.329102	6599.353027
3827.602539	6715.322266
3826.875977	6614.443848
3826.149414	6486.070313
3825.422852	6598.561523
3824.696289	6611.262207
3823.969727	6383.212891
3823.242188	6626.335938
3822.515625	6518.691406
3821.788086	6668.899414
3821.060547	6578.467285
3820.333008	6536.174805
3819.605469	6511.075195
3818.877930	6650.881348
3818.150391	6670.424316
3817.421875	6604.103516
3816.694336	6575.574707
3815.965820	6650.050293
3815.237305	6449.892090
3814.508789	6452.290039
3813.780273	6571.358398
3813.051758	6549.719238
3812.323242	6456.047363
3811.593750	6571.627930
3810.865234	6563.715820
3810.135742	6751.245605
3809.407227	6486.190430
3808.677734	6509.144043
3807.948242	6538.944336
3807.218750	6620.133789
3806.488281	6612.220215
3805.758789	6597.458496
3805.029297	6685.448730
3804.298828	6667.254883
3803.568359	6580.590332
3802.837891	6709.619629
3802.107422	6585.326172
3801.376953	6676.668945
3800.646484	6607.166016
3799.916016	6595.843750
3799.185547	6670.037598
3798.454102	6453.509277
3797.722656	6835.451660
3796.992188	6540.331543
3796.260742	6522.191406
3795.529297	6596.336914
3794.796875	6537.186523
3794.065430	6597.639160
3793.333984	6712.730469
3792.601563	6595.523926
3791.870117	6775.464355
3791.137695	6798.279785
3790.405273	6561.626953
3789.672852	6703.937988
3788.940430	6610.716309
3788.208008	6647.191895
3787.474609	6724.597168
3786.742188	6563.191406
3786.008789	6742.905273
3785.276367	6663.391602
3784.542969	6536.168945
3783.809570	6668.073242
3783.076172	6707.906250
3782.342773	6717.054688
3781.608398	6651.237793
3780.875000	6769.411133
3780.140625	6638.886719
3779.407227	6808.110352
3778.672852	6623.137695
3777.938477	6778.690430
3777.204102	6532.507324
3776.469727	6749.289063
3775.735352	6731.191895
3775.000000	6634.843262
3774.265625	6630.377930
3773.530273	6479.653809
3772.794922	6652.058594
3772.059570	6603.388184
3771.324219	6748.519043
3770.588867	6693.050293
3769.853516	6671.585449
3769.118164	6667.117676
3768.381836	6645.663574
3767.646484	6715.936035
3766.910156	6711.463379
3766.173828	6696.803711
3765.437500	6702.521484
3764.701172	6670.893066
3763.964844	6887.060059
3763.227539	6906.318848
3762.491211	6647.326660
3761.753906	6802.324707
3761.017578	6414.530762
3760.280273	6627.173340
3759.542969	6710.887207
3758.805664	6658.954102
3758.068359	6596.867676
3757.331055	6741.555176
3756.592773	6754.030273
3755.855469	6641.132813
3755.117188	6762.028809
3754.378906	6825.302734
3753.640625	6665.033691
3752.902344	6691.054688
3752.164063	6656.126465
3751.425781	6800.617676
3750.686523	6664.146484
3749.948242	6608.934570
3749.208984	6773.664551
3748.470703	6819.939453
3747.731445	6710.610840
3746.992188	6925.972168
3746.252930	6718.604004
3745.512695	6734.431152
3744.773438	6831.377441
3744.034180	6826.902832
3743.293945	6697.402344
3742.553711	6679.436523
3741.813477	6735.792480
3741.073242	6809.017578
3740.333008	6865.334473
3739.592773	6806.835449
3738.852539	6853.006836
3738.111328	6784.401855
3737.371094	6931.805176
3736.629883	6805.847656
3735.888672	6619.203125
3735.147461	6722.710449
3734.406250	6930.735840
3733.665039	6717.184082
3732.923828	6867.826660
3732.181641	6863.354980
3731.440430	6703.843750
3730.698242	6729.729004
3729.956055	6917.335449
3729.214844	6949.915527
3728.472656	6702.916016
3727.729492	6792.771484
3726.987305	6784.948242
3726.245117	6851.194824
3725.501953	6890.490723
3724.759766	6892.751953
3724.016602	6851.266602
3723.273438	6742.503906
3722.530273	6812.067383
3721.787109	6895.062012
3721.043945	6729.174316
3720.299805	6728.096191
3719.556641	6831.234863
3718.812500	6752.830566
3718.068359	6761.830566
3717.325195	6861.553711
3716.581055	6830.216797
3715.835938	6960.128906
3715.091797	6901.917480
3714.347656	6884.020996
3713.602539	6953.425781
3712.858398	7039.593262
3712.113281	6877.355957
3711.368164	6866.186035
3710.623047	6932.193359
3709.877930	6867.340820
3709.132813	6812.571777
3708.387695	6918.800293
3707.641602	6864.040039
3706.896484	6879.703613
3706.150391	6938.939941
3705.404297	6780.302734
3704.658203	6826.131348
3703.912109	6825.037598
3703.166016	6850.743652
3702.419922	7077.409180
3701.672852	6855.246582
3700.926758	6834.057617
3700.179688	6839.658203
3699.432617	6905.508789
3698.685547	6777.224609
3697.938477	6873.179688
3697.191406	7116.314941
3696.444336	6881.013184
3695.696289	6899.978027
3694.949219	6945.689941
3694.201172	6857.644531
3693.454102	6829.801758
3692.706055	6979.119141
3691.958008	7098.311523
3691.208984	6976.882813
3690.460938	6908.947266
3689.712891	6851.054688
3688.963867	7073.724609
3688.215820	7049.216309
3687.466797	7021.376465
3686.717773	6726.489258
3685.968750	6902.308105
3685.219727	7064.722168
3684.470703	6976.838379
3683.720703	6835.605957
3682.971680	7067.998047
3682.221680	6860.095703
3681.471680	7055.729980
3680.722656	7021.260254
3679.972656	6963.467773
3679.221680	6979.016113
3678.471680	7187.834961
3677.721680	6960.121094
3676.970703	7072.269043
3676.220703	7171.057617
3675.469727	7033.370605
3674.718750	7018.925293
3673.967773	6981.180176
3673.216797	6983.390137
3672.465820	6889.085938
3671.714844	7333.870605
3670.962891	6737.163574
3670.211914	6875.795898
3669.459961	7031.012695
3668.708008	7122.997559
3667.956055	7264.825195
3667.204102	7050.904297
3666.452148	7092.983887
3665.699219	6992.149414
3664.947266	6984.383789
3664.194336	7239.074219
3663.442383	6965.537598
3662.689453	6937.852539
3661.936523	7132.656738
3661.183594	7094.993164
3660.430664	7219.999023
3659.676758	7152.462402
3658.923828	7240.915039
3658.169922	7004.181152
3657.416992	7178.881836
3656.663086	7045.056152
3655.909180	7269.439453
3655.155273	7016.272461
3654.401367	7161.020996
3653.646484	7219.539551
3652.892578	7195.183105
3652.137695	7167.520996
3651.383789	7355.223145
3650.628906	7135.411133
3649.874023	7220.382324
3649.119141	7162.928711
3648.364258	7112.115723
3647.609375	7240.086426
3646.853516	7185.966797
3646.098633	7287.408203
3645.342773	7282.932129
3644.586914	7258.606445
3643.831055	7313.677246
3643.075195	7252.973633
3642.319336	7331.174805
3641.563477	7379.594238
3640.806641	7338.743164
3640.050781	7178.917480
3639.293945	7230.642090
3638.537109	7212.962891
3637.780273	7264.665527
3637.023438	7263.501465
3636.266602	7321.784180
3635.509766	7389.953613
3634.752930	7180.774902
3633.995117	7318.265625
3633.237305	7511.819824
3632.480469	7414.918457
3631.722656	7304.851074
3630.964844	7247.600098
3630.207031	7309.106934
3629.448242	7495.911133
3628.690430	7498.007324
3627.931641	7315.485352
3627.173828	7452.754395
3626.415039	7520.770020
3625.656250	7364.692383
3624.897461	7221.843262
3624.138672	7296.450684
3623.379883	7440.199219
3622.620117	7422.541992
3621.861328	7539.883789
3621.101563	7439.916016
3620.341797	7353.145996
3619.582031	7509.933105
3618.822266	7571.248047
3618.062500	7533.846191
3617.302734	7572.111816
3616.542969	7403.167969
3615.782227	7556.532715
3615.021484	7423.810547
3614.261719	7721.761719
3613.500977	7641.643066
3612.740234	7630.560547
3611.979492	7734.479492
3611.217773	7424.436523
3610.457031	7643.316895
3609.695313	7707.773926
3608.934570	7660.569336
3608.172852	7544.435547
3607.411133	7530.096680
3606.649414	7604.376465
3605.887695	7701.602051
3605.125977	7624.906738
3604.363281	7604.002441
3603.601563	7599.504395
3602.838867	7565.493652
3602.076172	7633.137207
3601.314453	7681.088867
3600.551758	7607.747070
3599.788086	7554.092285
3599.025391	7608.586426
3598.262695	7604.091309
3597.499023	7501.326660
3596.736328	7830.916504
3595.972656	7751.070801
3595.208984	7720.361816
3594.445313	7519.436035
3593.681641	7691.704102
3592.916992	7752.649902
3592.153320	7718.687988
3591.389648	7723.994141
3590.625000	7680.234375
3589.860352	7914.476074
3589.095703	7573.136230
3588.331055	7630.771973
3587.566406	7698.196289
3586.801758	7716.572754
3586.036133	7718.604492
3585.271484	7648.754395
3584.505859	7725.932129
3583.741211	7678.966797
3582.975586	7752.848145
3582.209961	7767.932129
3581.443359	7626.306152
3580.677734	7745.858398
3579.912109	7522.690430
3579.145508	7811.902344
3578.379883	7647.520996
3577.613281	7525.599609
3576.846680	7759.225098
3576.080078	7715.588867
3575.313477	7727.395020
3574.545898	7693.557129
3573.779297	7878.113770
3573.012695	7498.814941
3572.245117	7699.635254
3571.477539	7675.596680
3570.709961	7648.308105
3569.942383	7705.706055
3569.174805	7678.420898
3568.407227	7680.446289
3567.638672	7841.979980
3566.871094	7756.100098
3566.102539	7862.247559
3565.333984	7672.271973
3564.565430	7814.183594
3563.796875	7624.276367
3563.028320	7772.654297
3562.259766	7547.046387
3561.490234	7770.164063
3560.721680	7804.675781
3559.952148	7696.172852
3559.182617	7594.203613
3558.413086	7774.933105
3557.643555	7517.054688
3556.874023	7554.826660
3556.104492	7732.227051
3555.333984	7545.912109
3554.564453	7460.295898
3553.793945	7731.757324
3553.023438	7655.874512
3552.252930	7657.893066
3551.482422	7728.041504
3550.711914	7713.828125
3549.941406	7605.562988
3549.169922	7620.558594
3548.399414	7635.549316
3547.627930	7705.644531
3546.856445	7730.339844
3546.084961	7567.065430
3545.313477	7501.049316
3544.541992	7603.517090
3543.770508	7579.625000
3542.998047	7458.581055
3542.226563	7758.531250
3541.454102	7643.972168
3540.681641	7600.665527
3539.909180	7641.522949
3539.136719	7491.440430
3538.364258	7512.889160
3537.591797	7679.905762
3536.818359	7549.295898
3536.045898	7561.021973
3535.272461	7847.587891
3534.499023	7581.229980
3533.725586	7618.804688
3532.952148	7756.555176
3532.178711	7519.421875
3531.404297	7466.523438
3530.630859	7597.771484
3529.856445	7648.231445
3529.082031	7627.629883
3528.308594	7590.891113
3527.534180	7276.532227
3526.759766	7653.014160
3525.984375	7458.153320
3525.209961	7485.999023
3524.434570	7484.799805
3523.660156	7580.371094
3522.884766	7588.832031
3522.109375	7552.145020
3521.333984	7563.831543
3520.558594	7717.353516
3519.783203	7587.192871
3519.006836	7460.296387
3518.231445	7633.092773
3517.455078	7486.899902
3516.678711	7476.037109
3515.902344	7507.044434
3515.125977	7428.561523
3514.349609	7585.126465
3513.573242	7580.691895
3512.796875	7563.385254
3512.019531	7520.339844
3511.242188	7483.743164
3510.465820	7350.650879
3509.688477	7478.128906
3508.911133	7702.042480
3508.132813	7549.686035
3507.355469	7474.535156
3506.578125	7582.625000
3505.799805	7452.856934
3505.021484	7663.741211
3504.244141	7511.511719
3503.465820	7574.553711
3502.687500	7711.446289
3501.908203	7546.436523
3501.129883	7513.120117
3500.351563	7717.370605
3499.572266	7574.906738
3498.792969	7464.580566
3498.014648	7594.940430
3497.235352	7503.894531
3496.455078	7557.222656
3495.675781	7616.947266
3494.896484	7506.701660
3494.116211	7755.575195
3493.336914	7667.781250
3492.556641	7688.988281
3491.776367	7453.822754
3490.996094	7600.014648
3490.215820	7419.398926
3489.435547	7652.030762
3488.655273	7493.881348
3487.874023	7764.850586
3487.092773	7641.950195
3486.312500	7541.495117
3485.531250	7613.897461
3484.750000	7468.679688
3483.968750	7553.867676
3483.186523	7475.882813
3482.405273	7637.804199
3481.623047	7479.883301
3480.841797	7792.028320
3480.059570	7503.061035
3479.277344	7460.306152
3478.495117	7657.253418
3477.712891	7633.658691
3476.930664	7498.252930
3476.147461	7509.828613
3475.365234	7716.222168
3474.582031	7619.187012
3473.798828	7592.423828
3473.015625	7524.169434
3472.232422	7621.908203
3471.449219	7706.850586
3470.666016	7759.857910
3469.881836	7659.717285
3469.098633	7588.316406
3468.314453	7654.073242
3467.530273	7722.998047
3466.746094	7603.797852
3465.961914	7577.078125
3465.177734	7703.350098
3464.392578	7568.276367
3463.608398	7684.950195
3462.823242	7597.707031
3462.039063	7746.189453
3461.253906	7608.010254
3460.468750	7568.582031
3459.683594	7541.900391
3458.897461	7712.577637
3458.112305	7533.118164
3457.326172	7694.195801
3456.541016	7715.233398
3455.754883	7621.747070
3454.968750	7690.497070
3454.182617	7682.904297
3453.396484	7694.391113
3452.610352	7632.757324
3451.823242	7526.644043
3451.037109	7690.692383
3450.250000	7679.927246
3449.462891	7643.750000
3448.675781	7760.053223
3447.888672	7806.448730
3447.101563	7649.601563
3446.314453	7648.375977
3445.526367	7748.730957
3444.739258	7703.054688
3443.951172	7892.223633
3443.163086	7649.819336
3442.375000	7715.213379
3441.586914	7587.102051
3440.798828	7681.026855
3440.009766	7584.670410
3439.221680	7558.091797
3438.432617	7680.503906
3437.644531	7530.314453
3436.855469	7662.198242
3436.066406	7638.791992
3435.277344	7634.399902
3434.487305	7775.704102
3433.698242	7609.785156
3432.908203	7618.063965
3432.119141	7458.554688
3431.329102	7533.325684
3430.539063	7671.367188
3429.749023	7654.316406
3428.958984	7801.785156
3428.168945	7484.211426
3427.377930	7492.500000
3426.587891	7712.654297
3425.796875	7613.405273
3425.005859	7858.758789
3424.214844	7541.429199
3423.423828	7707.710449
3422.632813	7564.289551
3421.840820	7689.443848
3421.049805	7473.421875
3420.257813	7690.137207
3419.466797	7786.791992
3418.674805	7763.443848
3417.882813	7585.427246
3417.090820	7817.765625
3416.297852	7620.863281
3415.505859	7600.710449
3414.713867	7564.791504
3413.920898	7667.664551
3413.127930	7524.522949
3412.334961	7747.187500
3411.541992	7654.520020
3410.749023	7492.536133
3409.956055	7636.308105
3409.162109	7600.422363
3408.369141	7476.331055
3407.575195	7771.239746
