#Wave		#Intensity
4002.113281	7466.811035
4001.415039	7456.072754
4000.716797	7415.506348
4000.017578	7213.927734
3999.319336	7295.056641
3998.620117	7150.796875
3997.920898	7410.740234
3997.221680	7291.540039
3996.522461	7487.018555
3995.823242	7296.346680
3995.124023	7380.957520
3994.424805	7329.738770
3993.724609	7167.768555
3993.025391	7413.125488
3992.325195	7497.662598
3991.625000	7446.457520
3990.924805	7366.702148
3990.224609	7254.838867
3989.524414	7385.752930
3988.824219	7498.778809
3988.124023	7426.202637
3987.422852	7385.761230
3986.721680	7381.006836
3986.021484	7361.986816
3985.320313	7360.803711
3984.619141	7366.752441
3983.917969	7426.176270
3983.216797	7382.208496
3982.514648	7402.406250
3981.813477	7529.500000
3981.112305	7335.896484
3980.410156	7370.340820
3979.708008	7347.786133
3979.005859	7289.627930
3978.303711	7487.847656
3977.601563	7443.924805
3976.899414	7417.812988
3976.197266	7498.474609
3975.494141	7283.773926
3974.791992	7535.200195
3974.088867	7252.977051
3973.385742	7283.820801
3972.682617	7204.418945
3971.979492	7445.029785
3971.276367	7394.065918
3970.573242	7325.347168
3969.869141	7277.972168
3969.166016	7475.778320
3968.461914	7186.820313
3967.758789	7416.544922
3967.054688	7486.381836
3966.350586	7428.366211
3965.646484	7544.332031
3964.941406	7504.073242
3964.237305	7431.885254
3963.533203	7522.954102
3962.828125	7447.237793
3962.124023	7456.684082
3961.418945	7529.970215
3960.713867	7390.456055
3960.008789	7453.091797
3959.303711	7508.617188
3958.598633	7301.825684
3957.892578	7694.037598
3957.187500	7434.130859
3956.481445	7429.394043
3955.776367	7375.066406
3955.070313	7359.715332
3954.364258	7379.780273
3953.658203	7116.591309
3952.952148	7412.810547
3952.245117	7390.383301
3951.539063	7491.824219
3950.832031	7522.465820
3950.125977	7316.068359
3949.418945	7321.967773
3948.711914	7561.281738
3948.004883	7499.954590
3947.297852	7406.828125
3946.590820	7356.149902
3945.883789	7323.159668
3945.175781	7417.395508
3944.468750	7377.339355
3943.760742	7178.326660
3943.052734	7396.162598
3942.344727	7522.109375
3941.636719	7478.530273
3940.928711	7533.815430
3940.220703	7423.181641
3939.511719	7369.051270
3938.803711	7456.084961
3938.094727	7426.662598
3937.386719	7453.690430
3936.677734	7494.817383
3935.968750	7366.663574
3935.259766	7432.471680
3934.550781	7529.986328
3933.840820	7465.332520
3933.131836	7333.740723
3932.421875	7406.558594
3931.712891	7324.339844
3931.002930	7527.465820
3930.292969	7441.732422
3929.583008	7190.524414
3928.873047	7379.490234
3928.163086	7536.713867
3927.452148	7345.444824
3926.742188	7414.646484
3926.031250	7424.011719
3925.321289	7345.425781
3924.610352	7302.038086
3923.899414	7395.819336
3923.188477	7250.466797
3922.477539	7386.413574
3921.765625	7511.771973
3921.054688	7324.295410
3920.342773	7291.494141
3919.631836	7378.158691
3918.919922	7415.615723
3918.208008	7439.011230
3917.496094	7367.583008
3916.784180	7717.515625
3916.072266	7516.173340
3915.359375	7297.345215
3914.647461	7355.834961
3913.934570	7407.287598
3913.222656	7648.173828
3912.509766	7387.371094
3911.796875	7417.750488
3911.083984	7500.719238
3910.371094	7527.563965
3909.658203	7256.430664
3908.944336	7546.177734
3908.231445	7394.277832
3907.517578	7519.229004
3906.803711	7339.355469
3906.089844	7390.717773
3905.375977	7494.596191
3904.662109	7461.879395
3903.948242	7289.131348
3903.234375	7343.969238
3902.519531	7524.785156
3901.805664	7387.103516
3901.090820	7347.431641
3900.375977	7349.750488
3899.661133	7376.552246
3898.946289	7448.807617
3898.231445	7377.681641
3897.516602	7488.368652
3896.801758	7371.818359
3896.085938	7353.161133
3895.370117	7502.235840
3894.655273	7494.044434
3893.939453	7391.540039
3893.223633	7603.402832
3892.507813	7465.993164
3891.791992	7478.760742
3891.075195	7414.724121
3890.359375	7375.140137
3889.642578	7391.405762
3888.925781	7484.429688
3888.209961	7472.762695
3887.493164	7642.481445
3886.776367	7404.101074
3886.059570	7619.107422
3885.341797	7624.857910
3884.625000	7539.973145
3883.907227	7423.747559
3883.190430	7499.221191
3882.472656	7849.923340
3881.754883	7507.266113
3881.037109	7450.332031
3880.319336	7473.514160
3879.601563	7458.387207
3878.883789	7742.666992
3878.165039	7539.534668
3877.447266	7284.263672
3876.728516	7429.244141
3876.009766	7542.865234
3875.291016	7419.903320
3874.572266	7561.313477
3873.853516	7591.397949
3873.134766	7534.548828
3872.415039	7529.863770
3871.696289	7507.800781
3870.976563	7471.843262
3870.256836	7599.209473
3869.537109	7452.075684
3868.817383	7555.088379
3868.097656	7383.696777
3867.377930	7497.104492
3866.658203	7440.351074
3865.937500	7623.140137
3865.217773	7385.901855
3864.497070	7495.765137
3863.776367	7428.638672
3863.055664	7528.052246
3862.334961	7377.695313
3861.614258	7418.127930
3860.893555	7760.218750
3860.171875	7731.238281
3859.451172	7442.290039
3858.729492	7562.399414
3858.007813	7429.506836
3857.287109	7618.873535
3856.565430	7475.621582
3855.842773	7678.773926
3855.121094	7521.706055
3854.399414	7582.824219
3853.676758	7401.587891
3852.955078	7556.162109
3852.232422	7575.715332
3851.509766	7463.771973
3850.787109	7597.502930
3850.064453	7665.467285
3849.341797	7480.932617
3848.619141	7497.022949
3847.895508	7447.416016
3847.172852	7383.996582
3846.449219	7645.496582
3845.725586	7692.651855
3845.001953	7549.752441
3844.278320	7527.813477
3843.554688	7533.514160
3842.831055	7528.852539
3842.107422	7538.003906
3841.382813	7526.437500
3840.659180	7480.355469
3839.934570	7548.183594
3839.209961	7422.743164
3838.485352	7514.709961
3837.760742	7668.742676
3837.036133	7681.309570
3836.310547	7445.571289
3835.585938	7665.053711
3834.860352	7674.166992
3834.135742	7748.769531
3833.410156	7630.349121
3832.684570	7642.908691
3831.958984	7603.784668
3831.233398	7533.670410
3830.507813	7535.906738
3829.781250	7710.324219
3829.055664	7416.424805
3828.329102	7501.298828
3827.602539	7768.571289
3826.875977	7526.424805
3826.149414	7673.176270
3825.422852	7482.727539
3824.696289	7515.925293
3823.969727	7635.093262
3823.242188	7688.887695
3822.515625	7560.444336
3821.788086	7569.544434
3821.060547	7434.286621
3820.333008	7512.133789
3819.605469	7483.441895
3818.877930	7753.636230
3818.150391	7439.824219
3817.421875	7648.121582
3816.694336	7430.571289
3815.965820	7649.102539
3815.237305	7747.421875
3814.508789	7626.057617
3813.780273	7470.416504
3813.051758	7407.460938
3812.323242	7725.302246
3811.593750	7343.348145
3810.865234	7695.390625
3810.135742	7594.722656
3809.407227	7528.368652
3808.677734	7486.029785
3807.948242	7621.914551
3807.218750	7624.119141
3806.488281	7739.381348
3805.758789	7375.040527
3805.029297	7723.200195
3804.298828	7704.839844
3803.568359	7672.790527
3802.837891	7657.867188
3802.107422	7567.648438
3801.376953	7669.100586
3800.646484	7630.232910
3799.916016	7533.219727
3799.185547	7549.114746
3798.454102	7705.223633
3797.722656	7488.563965
3796.992188	7634.375488
3796.260742	7438.306152
3795.529297	7649.016602
3794.796875	7692.214844
3794.065430	7591.897461
3793.333984	7641.922363
3792.601563	7709.009277
3791.870117	7591.662109
3791.137695	7703.123535
3790.405273	7718.958496
3789.672852	7581.184570
3788.940430	7450.280273
3788.208008	7732.308594
3787.474609	7478.598145
3786.742188	7661.604980
3786.008789	7609.216797
3785.276367	7679.609863
3784.542969	7746.570313
3783.809570	7683.965820
3783.076172	7645.240723
3782.342773	7589.488281
3781.608398	7584.864258
3780.875000	7672.226563
3780.140625	7797.029785
3779.407227	7649.332520
3778.672852	7954.575684
3777.938477	7834.137207
3777.204102	7557.147461
3776.469727	7790.782715
3775.735352	7779.325195
3775.000000	7808.700195
3774.265625	7589.724609
3773.530273	7693.951172
3772.794922	7910.372070
3772.059570	7939.707031
3771.324219	7761.646973
3770.588867	7811.391113
3769.853516	7660.597656
3769.118164	7839.470215
3768.381836	7841.611328
3767.646484	7660.311523
3766.910156	7839.097656
3766.173828	7637.480469
3765.437500	7592.116211
3764.701172	7692.745117
3763.964844	7606.654297
3763.227539	7829.423828
3762.491211	7651.721191
3761.753906	7803.165527
3761.017578	7737.464355
3760.280273	7566.644531
3759.542969	7741.766113
3758.805664	7815.116699
3758.068359	7763.014648
3757.331055	7897.347168
3756.592773	7614.804688
3755.855469	7803.331055
3755.117188	7744.487793
3754.378906	7753.408203
3753.640625	7786.032715
3752.902344	7889.755859
3752.164063	7902.034180
3751.425781	7975.239258
3750.686523	7781.042480
3749.948242	7641.051758
3749.208984	7842.834473
3748.470703	7888.937988
3747.731445	7830.173340
3746.992188	7913.464355
3746.252930	7831.045410
3745.512695	7904.166504
3744.773438	7987.404785
3744.034180	7773.206543
3743.293945	7744.927734
3742.553711	7902.479492
3741.813477	8002.553711
3741.073242	7893.191895
3740.333008	7712.948730
3739.592773	7924.426270
3738.852539	7798.249023
3738.111328	7844.253906
3737.371094	7923.991699
3736.629883	7872.108398
3735.888672	7978.805176
3735.147461	7913.436523
3734.406250	7797.499023
3733.665039	7759.156738
3732.923828	8162.498047
3732.181641	8036.462891
3731.440430	7859.911133
3730.698242	7969.858887
3729.956055	7897.825195
3729.214844	7984.148926
3728.472656	7935.713379
3727.729492	8109.565430
3726.987305	7987.045898
3726.245117	7928.532227
3725.501953	7795.982422
3724.759766	7831.754883
3724.016602	7897.800781
3723.273438	7805.693359
3722.530273	8070.197266
3721.787109	8021.815918
3721.043945	7875.925293
3720.299805	7985.621582
3719.556641	8105.367676
3718.812500	7942.727051
3718.068359	7867.517578
3717.325195	7896.499023
3716.581055	7965.786621
3715.835938	8031.692871
3715.091797	8090.860840
3714.347656	8035.835449
3713.602539	7950.609863
3712.858398	7976.191406
3712.113281	7954.774902
3711.368164	7976.991699
3710.623047	7989.134766
3709.877930	7984.500000
3709.132813	7973.157715
3708.387695	7911.512207
3707.641602	8151.676270
3706.896484	8116.843262
3706.150391	7911.062012
3705.404297	8010.342773
3704.658203	8230.229492
3703.912109	8007.775879
3703.166016	8170.642578
3702.419922	8005.209961
3701.672852	7930.250977
3700.926758	8156.670410
3700.179688	8014.753906
3699.432617	8160.751465
3698.685547	7992.104980
3697.938477	8054.402832
3697.191406	8059.803711
3696.444336	7998.299316
3695.696289	7943.503906
3694.949219	8129.500488
3694.201172	7954.332520
3693.454102	8086.779297
3692.706055	7938.414063
3691.958008	8120.949707
3691.208984	7882.407715
3690.460938	8181.824219
3689.712891	8180.513184
3688.963867	7855.240723
3688.215820	8134.481445
3687.466797	8183.259277
3686.717773	8061.772461
3685.968750	7993.727539
3685.219727	8139.280762
3684.470703	8077.917969
3683.720703	8156.689453
3682.971680	8208.750977
3682.221680	8177.420898
3681.471680	8159.438477
3680.722656	8144.795410
3679.972656	8080.155762
3679.221680	8135.520020
3678.471680	8377.476563
3677.721680	8119.585938
3676.970703	8221.553711
3676.220703	8133.638184
3675.469727	8032.429199
3674.718750	8434.031250
3673.967773	8206.298828
3673.216797	8234.941406
3672.465820	8183.701172
3671.714844	8275.560547
3670.962891	8364.064453
3670.211914	8382.682617
3669.459961	8198.414063
3668.708008	8220.377930
3667.956055	8172.512695
3667.204102	8280.906250
3666.452148	8356.027344
3665.699219	8338.072266
3664.947266	8313.476563
3664.194336	8680.909180
3663.442383	8280.917969
3662.689453	8419.079102
3661.936523	8271.624023
3661.183594	8300.179688
3660.430664	8474.785156
3659.676758	8340.666992
3658.923828	8355.922852
3658.169922	8321.405273
3657.416992	8333.341797
3656.663086	8351.907227
3655.909180	8387.049805
3655.155273	8471.916992
3654.401367	8463.928711
3653.646484	8562.015625
3652.892578	8404.875977
3652.137695	8612.291992
3651.383789	8402.182617
3650.628906	8467.088867
3649.874023	8634.650391
3649.119141	8451.129883
3648.364258	8552.418945
3647.609375	8468.285156
3646.853516	8682.078125
3646.098633	8693.924805
3645.342773	8378.184570
3644.586914	8628.279297
3643.831055	8593.818359
3643.075195	8642.051758
3642.319336	8643.974609
3641.563477	8738.471680
3640.806641	8661.039063
3640.050781	8626.599609
3639.293945	8625.217773
3638.537109	8554.448242
3637.780273	8751.295898
3637.023438	8706.953125
3636.266602	8662.625000
3635.509766	8714.069336
3634.752930	8656.547852
3633.995117	8856.520508
3633.237305	8696.680664
3632.480469	8926.281250
3631.722656	8868.761719
3630.964844	8979.502930
3630.207031	8839.534180
3629.448242	8871.095703
3628.690430	8797.134766
3627.931641	8973.750000
3627.173828	9100.864258
3626.415039	9089.519531
3625.656250	8976.027344
3624.897461	8697.840820
3624.138672	9078.563477
3623.379883	8984.888672
3622.620117	9088.827148
3621.861328	9034.690430
3621.101563	9092.499023
3620.341797	9015.338867
3619.582031	8895.420898
3618.822266	9005.869141
3618.062500	9037.326172
3617.302734	8970.090820
3616.542969	8886.432617
3615.782227	9079.019531
3615.021484	8998.658203
3614.261719	9352.240234
3613.500977	9041.789063
3612.740234	9023.910156
3611.979492	9377.317383
3611.217773	9113.002930
3610.457031	9262.635742
3609.695313	9037.833008
3608.934570	9230.116211
3608.172852	9258.184570
3607.411133	9194.333984
3606.649414	9261.782227
3605.887695	9066.692383
3605.125977	9337.557617
3604.363281	9309.818359
3603.601563	9416.563477
3602.838867	9533.112305
3602.076172	9275.834961
3601.314453	9198.948242
3600.551758	9387.585938
3599.788086	9156.673828
3599.025391	9381.301758
3598.262695	9497.743164
3597.499023	9365.193359
3596.736328	9114.781250
3595.972656	9408.038086
3595.208984	9252.647461
3594.445313	9369.014648
3593.681641	9518.074219
3592.916992	9408.555664
3592.153320	9534.657227
3591.389648	9454.614258
3590.625000	9541.415039
3589.860352	9330.578125
3589.095703	9361.783203
3588.331055	9265.470703
3587.566406	9348.976563
3586.801758	9295.185547
3586.036133	9479.962891
3585.271484	9390.226563
3584.505859	9607.596680
3583.741211	9429.679688
3582.975586	9451.029297
3582.209961	9472.371094
3581.443359	9536.147461
3580.677734	9312.657227
3579.912109	9621.210938
3579.145508	9378.198242
3578.379883	9520.250000
3577.613281	9427.387695
3576.846680	9301.938477
3576.080078	9303.708984
3575.313477	9579.361328
3574.545898	9623.466797
3573.779297	9423.097656
3573.012695	9659.490234
3572.245117	9609.066406
3571.477539	9350.153320
3570.709961	9443.119141
3569.942383	9519.771484
3569.174805	9345.660156
3568.407227	9383.233398
3567.638672	9450.090820
3566.871094	9484.378906
3566.102539	9476.351563
3565.333984	9344.684570
3564.565430	9349.693359
3563.796875	9478.302734
3563.028320	9444.262695
3562.259766	9351.704102
3561.490234	9320.945313
3560.721680	9374.712891
3559.952148	9386.210938
3559.182617	9254.724609
3558.413086	9409.196289
3557.643555	9391.446289
3556.874023	9500.373047
3556.104492	9498.850586
3555.333984	9270.042969
3554.564453	9424.385742
3553.793945	9263.827148
3553.023438	9440.838867
3552.252930	9218.675781
3551.482422	9304.795898
3550.711914	9358.450195
3549.941406	9318.031250
3549.169922	9430.036133
3548.399414	9276.138672
3547.627930	9362.179688
3546.856445	9344.473633
3546.084961	9485.567383
3545.313477	9296.117188
3544.541992	9229.833984
3543.770508	9247.790039
3542.998047	9026.081055
3542.226563	9426.162109
3541.454102	9337.236328
3540.681641	9173.886719
3539.909180	9178.889648
3539.136719	9022.088867
3538.364258	9166.242188
3537.591797	9494.744141
3536.818359	9234.463867
3536.045898	9090.690430
3535.272461	9357.610352
3534.499023	9081.311523
3533.725586	9506.535156
3532.952148	9388.664063
3532.178711	9244.978516
3531.404297	9069.031250
3530.630859	9090.190430
3529.856445	9169.479492
3529.082031	9452.190430
3528.308594	9234.346680
3527.534180	9142.475586
3526.759766	9157.149414
3525.984375	9194.409180
3525.209961	9341.365234
3524.434570	9168.879883
3523.660156	9189.990234
3522.884766	9091.762695
3522.109375	9383.750000
3521.333984	9224.263672
3520.558594	9245.350586
3519.783203	9466.263672
3519.006836	9335.843750
3518.231445	9141.023438
3517.455078	9075.127930
3516.678711	9147.757813
3515.902344	9316.979492
3515.125977	9405.647461
3514.349609	9243.166016
3513.573242	9112.925781
3512.796875	9359.287109
3512.019531	9238.723633
3511.242188	9073.154297
3510.465820	9187.508789
3509.688477	9063.814453
3508.911133	9316.416992
3508.132813	9321.354492
3507.355469	9226.629883
3506.578125	9096.578125
3505.799805	9111.189453
3505.021484	9148.290039
3504.244141	9355.655273
3503.465820	9106.810547
3502.687500	9204.916016
3501.908203	9280.511719
3501.129883	9327.185547
3500.351563	9136.288086
3499.572266	9375.551758
3498.792969	9236.054688
3498.014648	9372.547852
3497.235352	9172.139648
3496.455078	9157.839844
3495.675781	9268.622070
3494.896484	9148.492188
3494.116211	9294.506836
3493.336914	9254.550781
3492.556641	9365.245117
3491.776367	9456.676758
3490.996094	9410.304688
3490.215820	9075.628906
3489.435547	9192.686523
3488.655273	9130.366211
3487.874023	9269.791016
3487.092773	9133.842773
3486.312500	9234.810547
3485.531250	9252.533203
3484.750000	9187.051758
3483.968750	9159.984375
3483.186523	9062.548828
3482.405273	9259.398438
3481.623047	9123.602539
3480.841797	9262.825195
3480.059570	9264.538086
3479.277344	9106.431641
3478.495117	9073.013672
3477.712891	9218.545898
3476.930664	9249.016602
3476.147461	9190.037109
3475.365234	9258.828125
3474.582031	9100.873047
3473.798828	9172.848633
3473.015625	8925.574219
3472.232422	9141.182617
3471.449219	9158.865234
3470.666016	9307.362305
3469.881836	9082.555664
3469.098633	9055.582031
3468.314453	9079.644531
3467.530273	9183.416016
3466.746094	9114.993164
3465.961914	8986.025391
3465.177734	9179.001953
3464.392578	9183.904297
3463.608398	9313.063477
3462.823242	9333.871094
3462.039063	9204.970703
3461.253906	9146.172852
3460.468750	9138.338867
3459.683594	9356.541016
3458.897461	9285.013672
3458.112305	9194.414063
3457.326172	9380.681641
3456.541016	9267.824219
3455.754883	9333.140625
3454.968750	9309.381836
3454.182617	9301.529297
3453.396484	8969.371094
3452.610352	9174.567383
3451.823242	9058.671875
3451.037109	9327.347656
3450.250000	9271.835938
3449.462891	9400.605469
3448.675781	9275.217773
3447.888672	8956.137695
3447.101563	9145.227539
3446.314453	9299.333008
3445.526367	9034.366211
3444.739258	9267.787109
3443.951172	9285.341797
3443.163086	9115.691406
3442.375000	9085.678711
3441.586914	9046.160156
3440.798828	9200.106445
3440.009766	9097.165039
3439.221680	9285.927734
3438.432617	9344.666016
3437.644531	9229.072266
3436.855469	9525.461914
3436.066406	9308.490234
3435.277344	9297.495117
3434.487305	9162.978516
3433.698242	9199.511719
3432.908203	9327.854492
3432.119141	9253.545898
3431.329102	9150.774414
3430.539063	9133.484375
3429.749023	8948.494141
3428.958984	9272.924805
3428.168945	9378.988281
3427.377930	9317.393555
3426.587891	9097.707031
3425.796875	9197.423828
3425.005859	9101.113281
3424.214844	9219.760742
3423.423828	9095.035156
3422.632813	9156.771484
3421.840820	9117.393555
3421.049805	9078.028320
3420.257813	9051.307617
3419.466797	9097.221680
3418.674805	9171.535156
3417.882813	8955.413086
3417.090820	9174.907227
3416.297852	9059.833008
3415.505859	9332.877930
3414.713867	9233.587891
3413.920898	9172.179688
3413.127930	9110.791016
3412.334961	9185.004883
3411.541992	9167.769531
3410.749023	9046.520508
3409.956055	9155.375977
3409.162109	9179.117188
3408.369141	9130.386719
3407.575195	9242.326172
