#Wave		#Intensity
4002.106445	1714.572021
4001.408203	1893.546143
4000.709961	1767.980103
4000.010742	1803.479248
3999.312500	1821.078125
3998.613281	1745.664673
3997.914063	1731.077637
3997.215820	1752.255737
3996.516602	1798.455078
3995.816406	1844.639526
3995.117188	1826.471558
3994.417969	1797.588135
3993.717773	1750.848145
3993.018555	1889.897583
3992.318359	1753.857544
3991.618164	1814.290161
3990.917969	1767.577393
3990.217773	1792.285278
3989.517578	1767.009277
3988.817383	1756.017944
3988.117188	1787.852905
3987.416016	1819.677612
3986.715820	1737.334473
3986.014648	1872.595581
3985.313477	1865.162231
3984.612305	1950.439331
3983.911133	1743.348389
3983.209961	1732.374634
3982.507813	1778.428101
3981.806641	1842.283813
3981.105469	1870.490479
3980.403320	1912.937134
3979.701172	1862.766113
3978.999023	1684.410767
3978.296875	1769.593384
3977.594727	1861.868408
3976.892578	1697.836670
3976.190430	1779.417114
3975.487305	1910.786987
3974.785156	1775.287720
3974.082031	1735.874268
3973.378906	1771.160889
3972.675781	1777.988281
3971.972656	1891.475586
3971.269531	1763.197754
3970.566406	1819.782715
3969.862305	1894.117920
3969.159180	1741.029419
3968.455078	1776.275269
3967.751953	1829.269653
3967.047852	1750.844849
3966.343750	1857.088745
3965.639648	1881.642334
3964.935547	1902.638306
3964.230469	1753.269287
3963.526367	1710.405029
3962.821289	1724.322144
3962.117188	1809.183228
3961.412109	1759.236816
3960.707031	1769.593140
3960.001953	1889.863037
3959.296875	1744.208740
3958.591797	1864.443970
3957.885742	1676.312500
3957.180664	1789.433105
3956.474609	1774.974243
3955.769531	1767.604614
3955.063477	1792.112793
3954.357422	1646.637573
3953.651367	1816.321289
3952.945313	1876.209961
3952.238281	1918.382080
3951.532227	1719.896606
3950.825195	1786.848389
3950.119141	1829.014404
3949.412109	1885.315430
3948.705078	1888.549316
3947.998047	1785.700806
3947.291016	1856.123535
3946.583984	1778.057617
3945.876953	1869.664917
3945.168945	1756.283936
3944.461914	1798.400391
3943.753906	1808.709473
3943.045898	1826.079468
3942.337891	1712.778198
3941.629883	1811.369385
3940.921875	1856.973267
3940.213867	1796.668457
3939.504883	1831.672363
3938.796875	1796.091553
3938.087891	1781.690796
3937.379883	1742.601807
3936.670898	1869.292847
3935.961914	1854.887207
3935.252930	1861.640991
3934.543945	1716.806152
3933.833984	1776.450439
3933.125000	1765.592773
3932.415039	1849.875000
3931.706055	1831.963013
3930.996094	1761.220093
3930.286133	1767.981079
3929.576172	1809.953003
3928.866211	1830.786865
3928.156250	1809.371948
3927.445313	1756.287231
3926.735352	1805.271973
3926.024414	1783.871216
3925.314453	1815.246216
3924.603516	1839.576294
3923.892578	1733.777222
3923.181641	1789.758545
3922.470703	1796.502563
3921.758789	1750.517944
3921.047852	1943.536133
3920.335938	1785.095703
3919.625000	1819.943115
3918.913086	1826.676636
3918.201172	1854.481689
3917.489258	1752.344360
3916.777344	1787.174561
3916.065430	1846.567627
3915.352539	1800.640991
3914.640625	1789.823608
3913.927734	1779.009644
3913.215820	1761.182373
3912.502930	1764.407471
3911.790039	1823.746826
3911.077148	1781.374390
3910.364258	1770.570190
3909.650391	1766.780518
3908.937500	1780.516846
3908.224609	1804.761719
3907.510742	1730.891724
3906.796875	1734.117188
3906.083008	1887.957886
3905.369141	1782.590576
3904.655273	1782.304443
3903.941406	1824.030640
3903.227539	1739.727051
3902.512695	1942.441650
3901.798828	1784.659912
3901.083984	1829.857544
3900.369141	1829.563965
3899.654297	1752.322021
3898.939453	1731.058350
3898.224609	1807.704102
3897.509766	1786.438232
3896.793945	1719.738892
3896.079102	1855.761841
3895.363281	1897.395386
3894.648438	1799.266724
3893.932617	1809.457520
3893.216797	1760.270752
3892.500977	1777.448486
3891.784180	1826.043945
3891.068359	1822.260010
3890.352539	1870.832642
3889.635742	1821.675293
3888.918945	1870.232300
3888.203125	1824.579346
3887.486328	1827.774780
3886.769531	1740.292480
3886.051758	1844.623291
3885.334961	1750.193359
3884.618164	1851.003052
3883.900391	1882.073975
3883.183594	1846.924438
3882.465820	1700.291504
3881.748047	1696.535034
3881.030273	1853.001709
3880.312500	1842.256836
3879.594727	1803.659668
3878.875977	1862.554199
3878.158203	1834.408569
3877.439453	1757.547852
3876.721680	1882.536255
3876.002930	1805.692383
3875.284180	1840.188843
3874.565430	1819.025269
3873.846680	1856.985962
3873.127930	1808.010864
3872.408203	1814.673584
3871.689453	1800.479126
3870.969727	1852.319336
3870.250000	1869.395752
3869.530273	1876.044189
3868.810547	1889.637695
3868.090820	1757.358887
3867.371094	1843.889160
3866.651367	1822.761719
3865.930664	1867.597168
3865.210938	1738.877441
3864.490234	1808.003662
3863.769531	1717.501465
3863.048828	1751.917358
3862.328125	1723.887695
3861.607422	1869.268433
3860.886719	1737.204590
3860.165039	1771.595093
3859.444336	1809.440918
3858.722656	1812.616455
3858.000977	1836.582397
3857.279297	1902.117065
3856.557617	1853.313965
3855.835938	1742.182129
3855.114258	1818.089233
3854.392578	1807.410156
3853.669922	1751.729614
3852.948242	1855.289551
3852.225586	1782.314941
3851.502930	1854.694336
3850.780273	1788.662720
3850.057617	1788.375854
3849.334961	1788.088989
3848.612305	1794.718262
3847.888672	1880.867310
3847.166016	1852.910278
3846.442383	1745.465698
3845.718750	1765.920654
3844.995117	1769.092651
3844.271484	1906.997192
3843.547852	1816.883423
3842.824219	1719.891235
3842.100586	1757.598877
3841.375977	1878.154175
3840.651367	1719.063965
3839.927734	1836.135254
3839.203125	1825.488281
3838.478516	1832.096069
3837.753906	1755.908325
3837.029297	1762.525146
3836.303711	1831.214722
3835.579102	1882.641968
3834.853516	1906.472656
3834.128906	1851.015625
3833.403320	1892.075684
3832.677734	1895.218018
3831.952148	1798.445801
3831.226563	1842.939087
3830.500000	1766.871338
3829.774414	1876.784424
3829.047852	1769.747803
3828.322266	1755.693848
3827.595703	1858.671875
3826.869141	1820.518066
3826.142578	1827.107788
3825.416016	1802.732544
3824.689453	1829.961670
3823.961914	1846.864380
3823.235352	1760.601440
3822.507813	1863.462769
3821.781250	1825.350708
3821.053711	1825.057983
3820.326172	1769.781860
3819.598633	1862.267822
3818.871094	1858.533936
3818.142578	1751.756592
3817.415039	1851.069458
3816.686523	1940.049194
3815.958984	1809.277832
3815.230469	1706.009277
3814.501953	1849.882446
3813.773438	1808.407715
3813.044922	1907.615723
3812.316406	1869.575317
3811.586914	1814.397705
3810.858398	1772.955078
3810.128906	1834.388550
3809.399414	1765.530151
3808.669922	1936.630249
3807.940430	1819.797852
3807.210938	1881.184326
3806.481445	1760.972168
3805.751953	1856.602905
3805.021484	1835.755737
3804.291992	1886.826904
3803.561523	1814.624268
3802.831055	1780.100586
3802.100586	1817.465088
3801.370117	1899.305908
3800.639648	2022.179810
3799.909180	1796.064697
3799.177734	1795.776733
3798.447266	1891.248291
3797.715820	1812.298096
3796.984375	1842.777588
3796.252930	1873.247192
3795.521484	1838.768921
3794.790039	1787.215576
3794.058594	1783.512451
3793.327148	1820.804077
3792.594727	1871.746094
3791.862305	1840.710571
3791.130859	1898.462036
3790.398438	1792.325195
3789.666016	1754.490356
3788.933594	1938.503418
3788.201172	1839.235718
3787.467773	1883.293823
3786.735352	1825.001221
3786.001953	1940.671387
3785.268555	1913.079346
3784.536133	1895.724854
3783.802734	1827.240356
3783.069336	1840.581299
3782.334961	1795.983154
3781.601563	1874.065186
3780.868164	1853.323730
3780.133789	1771.275513
3779.399414	1798.237549
3778.666016	1879.674316
3777.931641	1862.349731
3777.197266	1763.331787
3776.462891	1827.717041
3775.727539	1820.617920
3774.993164	1946.217896
3774.257813	1843.847900
3773.523438	1833.348145
3772.788086	1890.868652
3772.052734	1938.169800
3771.317383	1784.870239
3770.582031	1866.165161
3769.846680	1818.284668
3769.110352	1848.576294
3768.375000	1787.123657
3767.638672	1902.336182
3766.903320	1830.705200
3766.166992	1925.498047
3765.430664	1813.141357
3764.694336	1856.983887
3763.958008	1853.291870
3763.220703	1873.357422
3762.484375	1822.158813
3761.747070	1855.793579
3761.010742	1821.574829
3760.273438	1790.758545
3759.536133	1898.984985
3758.798828	1800.356079
3758.061523	1833.967163
3757.323242	1847.230835
3756.585938	1806.268311
3755.847656	1880.522095
3755.110352	1826.016113
3754.372070	1839.272461
3753.633789	1910.098267
3752.895508	1913.178345
3752.157227	1882.401245
3751.418945	1817.783203
3750.679688	1915.643188
3749.941406	1891.648193
3749.202148	1843.976807
3748.462891	1870.744507
3747.723633	1917.797729
3746.984375	1927.635864
3746.245117	1849.557617
3745.505859	1771.504272
3744.766602	1930.089478
3744.026367	1923.020752
3743.287109	1855.130493
3742.546875	1902.133057
3741.806641	1888.316162
3741.066406	1817.086426
3740.326172	1901.218750
3739.585938	1958.312866
3738.845703	1846.595703
3738.104492	1819.297119
3737.364258	1913.499390
3736.623047	1872.701904
3735.881836	1869.028076
3735.140625	1946.311157
3734.399414	1925.763550
3733.658203	1962.547852
3732.916992	1881.316528
3732.174805	1867.531006
3731.433594	1850.379517
3730.691406	1971.399902
3729.949219	1964.345215
3729.207031	1886.547241
3728.464844	1849.193726
3727.722656	1899.413696
3726.980469	1885.640381
3726.237305	1929.104980
3725.495117	1905.232910
3724.751953	1864.540527
3724.008789	1975.288574
3723.266602	1897.588135
3722.523438	1957.835693
3721.779297	1933.977905
3721.036133	1960.571167
3720.292969	1929.995728
3719.548828	1939.771973
3718.805664	1915.932129
3718.061523	1918.985840
3717.317383	1925.398804
3716.573242	1928.449951
3715.829102	1911.345215
3715.084961	1951.342163
3714.339844	1977.893921
3713.595703	1980.934448
3712.850586	1943.690308
3712.106445	1950.091675
3711.361328	1963.202881
3710.616211	1895.781006
3709.871094	1969.283325
3709.125977	1861.630615
3708.379883	1965.298584
3707.634766	1907.979004
3706.888672	1911.026001
3706.143555	1904.015503
3705.397461	1840.029907
3704.651367	1946.969238
3703.905273	1963.409912
3703.159180	1999.945190
3702.412109	2059.915039
3701.666016	1939.023804
3700.918945	1988.938843
3700.172852	2038.837891
3699.425781	1974.912354
3698.678711	1904.313599
3697.931641	2064.627930
3697.184570	2020.802979
3696.436523	1997.062988
3695.689453	2013.466187
3694.942383	1936.229492
3694.194336	2006.133911
3693.446289	1959.010132
3692.698242	1945.326416
3691.950195	2038.589233
3691.202148	2014.872681
3690.454102	2131.480713
3689.705078	1947.420288
3688.957031	1993.865601
3688.208008	2067.010010
3687.459961	2070.017578
3686.710938	2079.700684
3685.961914	2166.146729
3685.212891	2095.719971
3684.462891	1968.593384
3683.713867	2028.327148
3682.963867	2028.002075
3682.214844	2101.047119
3681.464844	2137.389648
3680.714844	2030.361450
3679.964844	2016.702515
3679.214844	2016.379395
3678.464844	2162.678711
3677.713867	2099.028076
3676.963867	2025.404175
3676.212891	2008.426025
3675.462891	2084.698730
3674.711914	2074.375732
3673.960938	2127.309326
3673.209961	2150.268555
3672.458984	2133.283691
3671.707031	2189.509766
3670.956055	2142.581299
3670.204102	2065.729492
3669.452148	2038.791138
3668.701172	2131.575439
3667.949219	2164.482422
3667.197266	2084.351807
3666.444336	2004.246948
3665.692383	2176.735352
3664.940430	2046.800293
3664.187500	2079.694336
3663.434570	2159.081055
3662.681641	2188.625244
3661.929688	2184.954102
3661.175781	2234.405029
3660.422852	2273.881348
3659.669922	2286.793213
3658.916992	2160.324951
3658.163086	2232.973389
3657.409180	2388.533936
3656.655273	2099.583008
3655.902344	2221.951416
3655.147461	2244.805908
3654.393555	2254.392334
3653.639648	2290.493408
3652.885742	2266.926758
3652.130859	2167.152832
3651.375977	2375.534668
3650.622070	2302.276367
3649.867188	2255.538086
3649.112305	2271.734619
3648.356445	2268.059570
3647.601563	2198.175781
3646.846680	2323.602539
3646.090820	2303.373535
3645.334961	2352.638428
3644.580078	2355.569824
3643.824219	2322.113770
3643.068359	2325.049072
3642.312500	2430.494141
3641.555664	2413.573486
3640.799805	2433.021240
3640.042969	2366.527344
3639.287109	2309.968750
3638.530273	2392.202148
3637.773438	2428.158691
3637.016602	2536.771729
3636.259766	2331.606689
3635.501953	2291.608643
3634.745117	2334.161133
3633.988281	2346.990967
3633.230469	2488.534180
3632.472656	2369.338623
3631.714844	2477.838623
3630.957031	2447.751953
3630.199219	2411.078369
3629.441406	2509.625977
3628.682617	2294.901367
3627.924805	2367.062012
3627.166016	2488.642822
3626.407227	2468.469971
3625.649414	2484.550293
3624.890625	2497.330811
3624.130859	2483.754395
3623.372070	2516.292236
3622.613281	2486.251465
3621.853516	2551.703613
3621.094727	2478.871094
3620.334961	2448.850830
3619.575195	2445.167480
3618.815430	2411.871582
3618.055664	2421.354980
3617.294922	2496.622314
3616.535156	2561.998779
3615.775391	2482.669189
3615.014648	2534.875732
3614.253906	2623.225586
3613.493164	2606.371582
3612.732422	2569.805908
3611.971680	2589.108154
3611.210938	2503.279785
3610.449219	2588.278809
3609.688477	2630.557373
3608.926758	2557.897461
3608.166016	2495.109863
3607.404297	2596.468018
3606.642578	2589.488281
3605.879883	2661.265381
3605.118164	2595.220459
3604.356445	2581.683105
3603.593750	2564.870117
3602.832031	2666.119141
3602.069336	2577.163574
3601.306641	2625.925293
3600.543945	2632.060303
3599.781250	2746.342773
3599.018555	2736.072510
3598.254883	2660.281250
3597.492188	2728.644531
3596.728516	2620.127197
3595.964844	2652.453857
3595.201172	2586.546631
3594.437500	2615.594482
3593.673828	2592.264160
3592.910156	2680.207275
3592.146484	2722.313965
3591.381836	2698.977539
3590.617188	2446.680908
3589.853516	2796.226074
3589.088867	2609.392822
3588.324219	2576.281006
3587.559570	2670.665283
3586.793945	2650.627441
3586.029297	2676.345459
3585.263672	2643.243652
3584.499023	2639.553467
3583.733398	2609.734375
3582.967773	2511.344482
3582.202148	2726.445557
3581.436523	2598.686279
3580.670898	2634.175537
3579.904297	2669.653564
3579.138672	2783.434814
3578.372070	2678.585938
3577.605469	2834.736084
3576.838867	2625.543213
3576.072266	2589.251221
3575.305664	2592.096924
3574.539063	2643.841309
3573.771484	2662.974609
3573.004883	2646.253174
3572.237305	2766.390381
3571.469727	2619.342285
3570.703125	2570.062256
3569.935547	2677.126221
3569.166992	2565.982422
3568.399414	2702.314941
3567.631836	2630.265869
3566.863281	2678.666016
3566.094727	2593.626709
3565.327148	2632.255615
3564.558594	2654.606445
3563.790039	2592.380371
3563.021484	2630.990723
3562.251953	2614.311035
3561.483398	2581.381104
3560.713867	2616.724121
3559.945313	2512.302734
3559.175781	2583.390381
3558.406250	2670.700195
3557.636719	2602.053711
3556.867188	2562.660889
3556.096680	2649.931885
3555.327148	2652.754395
3554.556641	2486.761719
3553.787109	2586.986328
3553.016602	2638.498047
3552.246094	2524.505127
3551.475586	2442.991943
3550.705078	2507.477051
3549.933594	2610.861084
3549.163086	2587.743408
3548.391602	2525.725586
3547.621094	2560.980225
3546.849609	2447.126953
3546.078125	2608.770264
3545.306641	2543.548584
3544.535156	2646.810547
3543.762695	2549.211914
3542.991211	2597.383057
3542.218750	2548.395264
3541.446289	2538.274170
3540.674805	2576.712402
3539.902344	2479.202881
3539.129883	2647.079590
3538.356445	2594.887207
3537.583984	2558.886475
3536.811523	2623.166260
3536.038086	2438.409912
3535.264648	2425.085449
3534.491211	2492.588379
3533.717773	2511.583496
3532.944336	2562.891357
3532.170898	2468.770996
3531.397461	2497.453125
3530.623047	2593.963135
3529.849609	2522.491455
3529.075195	2641.571533
3528.300781	2369.930176
3527.526367	2472.855225
3526.751953	2449.864746
3525.977539	2497.880615
3525.202148	2603.962158
3524.427734	2539.020996
3523.652344	2461.197754
3522.876953	2480.154297
3522.101563	2441.061279
3521.326172	2489.032227
3520.550781	2569.223877
3519.775391	2552.696533
3519.000000	2478.168213
3518.223633	2468.104980
3517.447266	2519.254395
3516.671875	2483.419189
3515.895508	2431.492920
3515.119141	2511.603516
3514.342773	2446.811279
3513.565430	2575.178223
3512.789063	2529.707275
3512.011719	2529.302002
3511.235352	2561.070801
3510.458008	2473.803955
3509.680664	2447.676514
3508.903320	2399.046143
3508.125977	2430.815430
3507.347656	2530.086182
3506.570313	2378.607178
3505.791992	2403.936523
3505.014648	2490.310547
3504.236328	2409.591797
3503.458008	2518.423096
3502.679688	2482.690186
3501.901367	2427.701172
3501.122070	2472.262451
3500.343750	2439.764160
3499.564453	2516.406006
3498.786133	2499.956787
3498.006836	2502.764893
3497.227539	2476.698730
3496.448242	2521.208740
3495.668945	2427.798096
3494.888672	2453.062012
3494.109375	2420.607910
3493.329102	2445.864746
3492.548828	2326.885010
3491.769531	2419.444580
3490.989258	2428.668945
3490.208008	2415.465576
3489.427734	2392.657471
3488.647461	2424.299072
3487.866211	2459.132568
3487.085938	2349.888184
3486.304688	2579.981445
3485.523438	2438.747803
3484.742188	2447.957031
3483.960938	2325.986328
3483.179688	2418.382324
3482.397461	2395.605957
3481.616211	2411.211426
3480.833984	2378.851318
3480.051758	2410.438721
3479.269531	2339.732666
3478.487305	2457.604004
3477.705078	2517.921387
3476.922852	2348.192383
3476.139648	2497.948730
3475.357422	2462.416504
3474.574219	2423.702637
3473.791016	2362.651611
3473.007813	2371.849609
3472.224609	2594.892090
3471.441406	2428.531982
3470.658203	2367.518799
3469.874023	2355.982666
3469.090820	2344.446777
3468.306641	2332.910645
3467.522461	2321.374512
3466.738281	2309.838623
3465.954102	2298.302490
3465.169922	2336.179932
3464.385742	2425.031494
3463.600586	2329.059082
3462.815430	2382.841309
3462.031250	2493.938232
3461.246094	2362.969971
3460.460938	2474.034424
3459.675781	2330.376953
3458.890625	2368.200195
3458.104492	2383.733643
3457.319336	2389.715576
3456.533203	2402.058838
3455.747070	2385.768799
3454.960938	2356.761719
3454.174805	2353.204102
3453.388672	2524.519531
3452.602539	2425.566406
3451.815430	2425.177734
3451.029297	2351.695801
3450.242188	2386.270996
3449.455078	2424.011963
3448.667969	2379.153320
3447.880859	2394.651611
3447.093750	2457.776367
3446.306641	2428.808105
3445.518555	2456.988525
3444.731445	2339.160645
3443.943359	2373.692871
3443.155273	2293.990479
3442.367188	2265.071533
3441.579102	2359.864502
3440.791016	2419.741943
3440.002930	2390.816406
3439.213867	2288.982422
3438.425781	2412.239014
3437.636719	2370.651123
3436.847656	2478.010742
3436.058594	2423.752441
3435.269531	2258.638672
3434.480469	2410.306396
3433.690430	2381.418945
3432.901367	2263.885254
3432.111328	2415.479004
3431.321289	2237.837402
3430.531250	2436.858154
3429.741211	2325.718994
3428.951172	2385.457275
3428.161133	2299.667725
3427.370117	2280.322754
3426.580078	2295.768311
3425.789063	2308.047119
3424.998047	2418.319336
3424.207031	2351.557129
3423.416016	2389.102295
3422.625000	2413.996826
3421.833984	2394.654785
3421.041992	2403.747070
3420.250977	2337.040283
3419.458984	2349.296387
3418.666992	2304.719727
3417.875000	2326.446777
3417.083008	2294.512451
3416.291016	2316.234131
3415.498047	2265.380859
3414.706055	2375.429443
3413.913086	2425.514404
3413.120117	2327.363770
3412.327148	2298.612793
3411.534180	2348.685791
3410.741211	2313.636230
3409.948242	2288.052734
3409.155273	2183.700195
3408.361328	2340.878906
3407.567383	2390.904785
