#Wave		#Intensity
4002.106445	2004.510132
4001.408203	1875.648682
4000.709961	1907.557373
4000.010742	1914.407471
3999.312500	1860.433472
3998.613281	1920.946533
3997.914063	1974.286987
3997.215820	1916.753174
3996.516602	1827.058716
3995.816406	1966.185547
3995.117188	1922.977783
3994.417969	1929.816284
3993.717773	2072.432617
3993.018555	1911.333130
3992.318359	1957.462158
3991.618164	1975.004761
3990.917969	2035.392090
3990.217773	1856.550537
3989.517578	1834.833984
3988.817383	1830.969971
3988.117188	1948.438477
3987.416016	1919.581421
3986.715820	1940.677612
3986.014648	1926.098389
3985.313477	2018.512085
3984.612305	1971.833618
3983.911133	2007.168091
3983.209961	1864.263306
3982.507813	1931.679443
3981.806641	1924.242310
3981.105469	1866.927612
3980.403320	1977.057983
3979.701172	1926.876587
3978.999023	1908.761475
3978.296875	1919.136475
3977.594727	1893.908325
3976.892578	1865.128784
3976.190430	1886.182129
3975.487305	2017.534790
3974.785156	1967.403076
3974.082031	1910.173096
3973.378906	1867.187622
3972.675781	2044.686523
3971.972656	2026.581055
3971.269531	1933.829712
3970.566406	1997.495850
3969.862305	2025.604492
3969.159180	1968.429199
3968.455078	1975.218140
3967.751953	1999.764648
3967.047852	1917.760986
3966.343750	1846.436279
3965.639648	1839.039063
3964.935547	1867.141235
3964.230469	2062.043457
3963.526367	1955.255493
3962.821289	2011.709229
3962.117188	1968.817139
3961.412109	2071.359375
3960.707031	1914.990479
3960.001953	1904.045776
3959.296875	1910.830322
3958.591797	1882.166870
3957.885742	1981.096558
3957.180664	1909.909790
3956.474609	2058.403320
3955.769531	1870.331055
3955.063477	1905.447998
3954.357422	2014.917847
3953.651367	1950.863647
3952.945313	1900.990112
3952.238281	1865.290283
3951.532227	1978.234985
3950.825195	1967.302368
3950.119141	1896.231567
3949.412109	1948.984619
3948.705078	2005.257446
3947.998047	1934.214600
3947.291016	1969.258667
3946.583984	1919.453857
3945.876953	2056.984863
3945.168945	1985.979126
3944.461914	1989.193359
3943.753906	1875.829590
3943.045898	1995.618774
3942.337891	2016.487305
3941.629883	2030.287231
3940.921875	1948.762817
3940.213867	1927.271118
3939.504883	1888.140137
3938.796875	1954.881592
3938.087891	1905.174316
3937.379883	2017.749512
3936.670898	2024.479492
3935.961914	1971.258423
3935.252930	1956.838623
3934.543945	1977.676025
3933.833984	1843.419800
3933.125000	1790.261719
3932.415039	1853.398682
3931.706055	1955.268188
3930.996094	1909.162598
3930.286133	1993.381104
3929.576172	1978.975830
3928.866211	1904.722534
3928.156250	1907.936890
3927.445313	1981.542480
3926.735352	1924.919678
3926.024414	1928.129150
3925.314453	1941.891235
3924.603516	1836.058838
3923.892578	1944.784668
3923.181641	2046.442993
3922.470703	2035.567505
3921.758789	1961.423706
3921.047852	1940.021606
3920.335938	1929.168335
3919.625000	1939.398804
3918.913086	1960.164551
3918.201172	1931.751709
3917.489258	1826.090332
3916.777344	2011.888062
3916.065430	1860.609985
3915.352539	1835.741211
3914.640625	1930.201904
3913.927734	1933.401001
3913.215820	1862.924072
3912.502930	1936.288208
3911.790039	1939.484619
3911.077148	1907.613525
3910.364258	1788.100586
3909.650391	2054.232910
3908.937500	1791.031616
3908.224609	1899.380371
3907.510742	1906.083130
3906.796875	1877.751099
3906.083008	1993.039063
3905.369141	1985.714844
3904.655273	1964.386719
3903.941406	1988.578613
3903.227539	1900.748047
3902.512695	1896.943115
3901.798828	2071.605225
3901.083984	1969.808472
3900.369141	1889.033569
3899.654297	1965.678589
3898.939453	1787.011719
3898.224609	1979.033936
3897.509766	2083.595215
3896.793945	1988.885010
3896.079102	1978.081299
3895.363281	1900.889648
3894.648438	1925.040649
3893.932617	1977.129150
3893.216797	1868.541260
3892.500977	2028.875366
3891.784180	1923.805420
3891.068359	1878.114746
3890.352539	1999.975952
3889.635742	1870.532471
3888.918945	1926.060181
3888.203125	1831.556763
3887.486328	1942.882690
3886.769531	1911.182861
3886.051758	1865.545288
3885.334961	1938.461182
3884.618164	1871.918457
3883.900391	2018.001587
3883.183594	1951.467285
3882.465820	2006.901489
3881.748047	1947.357544
3881.030273	1908.731079
3880.312500	1908.424927
3879.594727	1925.528564
3878.875977	1935.663818
3878.158203	1956.238403
3877.439453	2067.293945
3876.721680	1854.698486
3876.002930	2004.005493
3875.284180	1805.402710
3874.565430	1954.669678
3873.846680	1982.176025
3873.127930	1905.365356
3872.408203	1908.536011
3871.689453	1942.988159
3870.969727	1935.725830
3870.250000	1879.819946
3869.530273	2060.174561
3868.810547	2007.739990
3868.090820	1896.280640
3867.371094	1972.371094
3866.651367	1965.110718
3865.930664	1947.438721
3865.210938	2040.838257
3864.490234	1957.224731
3863.769531	1873.637939
3863.048828	1914.967163
3862.328125	1928.534302
3861.607422	2011.457642
3860.886719	1931.383057
3860.165039	1955.341675
3859.444336	1982.758911
3858.722656	1819.548096
3858.000977	1916.283203
3857.279297	1933.299316
3856.557617	1856.778076
3855.835938	1894.579712
3855.114258	1942.758179
3854.392578	2039.395752
3853.669922	2021.759155
3852.948242	2017.973511
3852.225586	1979.580933
3851.502930	1968.882690
3850.780273	1968.566895
3850.057617	1940.578003
3849.334961	1954.101074
3848.612305	1794.718262
3847.888672	1950.016846
3847.166016	2001.557983
3846.442383	2004.693237
3845.718750	1973.269409
3844.995117	1958.275269
3844.271484	1943.281006
3843.547852	1928.286865
3842.824219	1913.292725
3842.100586	1906.079712
3841.375977	2012.801270
3840.651367	1943.439697
3839.927734	1950.030762
3839.203125	2129.161133
3838.478516	1990.808716
3837.753906	2021.536865
3837.029297	1859.101807
3836.303711	2010.542725
3835.579102	1996.428101
3834.853516	1899.577637
3834.128906	1919.954712
3833.403320	1936.878906
3832.677734	1988.255981
3831.952148	1939.703003
3831.226563	1991.063110
3830.500000	2011.409058
3829.774414	1983.537354
3829.047852	2038.308716
3828.322266	1979.458740
3827.595703	1999.793213
3826.869141	1996.031128
3826.142578	2064.528564
3825.416016	1936.905396
3824.689453	1943.474365
3823.961914	1980.994263
3823.235352	1977.237915
3822.507813	1884.091553
3821.781250	2065.980713
3821.053711	1938.479614
3820.326172	2051.572266
3819.598633	1951.601685
3818.871094	1913.499756
3818.142578	1954.410767
3817.415039	1933.491821
3816.686523	1970.952637
3815.958984	1891.673828
3815.230469	1898.235718
3814.501953	1911.659668
3813.773438	1945.668213
3813.044922	1965.942139
3812.316406	1931.322754
3811.586914	1958.452026
3810.858398	1978.713867
3810.128906	1981.825317
3809.399414	1971.223022
3808.669922	1974.334595
3807.940430	2042.560303
3807.210938	1918.876465
3806.481445	1928.846924
3805.751953	1959.366821
3805.021484	2027.551025
3804.291992	1914.221924
3803.561523	1872.829102
3802.831055	1879.375366
3802.100586	2077.592041
3801.370117	1971.171509
3800.639648	1933.217651
3799.909180	2049.224365
3799.177734	2059.157227
3798.447266	1952.807861
3797.715820	2034.561157
3796.984375	1976.114014
3796.252930	1927.940430
3795.521484	1978.898193
3794.790039	1947.825806
3794.058594	1985.097168
3793.327148	1957.449829
3792.594727	2039.110229
3791.862305	1960.237305
3791.130859	1966.752075
3790.398438	1891.329834
3789.666016	1972.948364
3788.933594	1945.329224
3788.201172	2009.851196
3787.467773	1948.117310
3786.735352	1998.973267
3786.001953	1923.618042
3785.268555	2011.972900
3784.536133	1936.639771
3783.802734	1851.103516
3783.069336	2000.780029
3782.334961	1905.037109
3781.601563	1935.398193
3780.868164	2044.107056
3780.133789	1941.590454
3779.399414	1948.090698
3778.666016	1971.614868
3777.931641	2035.987427
3777.197266	2028.852783
3776.462891	2035.334717
3775.727539	2011.187378
3774.993164	1936.010376
3774.257813	1966.317505
3773.523438	1901.375977
3772.788086	2064.311523
3772.052734	1887.165283
3771.317383	1965.057129
3770.582031	1954.544556
3769.846680	2018.805786
3769.110352	2011.686035
3768.375000	1909.436401
3767.638672	2038.217407
3766.903320	1980.150513
3766.166992	2078.315430
3765.430664	1999.888184
3764.694336	1918.091187
3763.958008	1931.360962
3763.220703	2002.320435
3762.484375	1913.775757
3761.747070	2008.463989
3761.010742	1909.770264
3760.273438	2001.036987
3759.536133	1895.593994
3758.798828	2105.501221
3758.061523	1969.565430
3757.323242	1965.860352
3756.585938	2036.711548
3755.847656	2005.890137
3755.110352	2056.385498
3754.372070	1947.664185
3753.633789	1876.231323
3752.895508	1960.584473
3752.157227	2041.525024
3751.418945	1929.490479
3750.679688	1929.181274
3749.941406	1854.424438
3749.202148	1992.848389
3748.462891	1985.763184
3747.723633	2049.709717
3746.984375	2032.472168
3746.245117	2103.153320
3745.505859	1977.729126
3744.766602	1977.412109
3744.026367	2088.623779
3743.287109	1993.673950
3742.546875	1915.647339
3741.806641	2050.461426
3741.066406	2040.000366
3740.326172	1995.773193
3739.585938	2005.582520
3738.845703	1998.509399
3738.104492	2116.325195
3737.364258	1967.495850
3736.623047	2007.671387
3735.881836	2061.328857
3735.140625	2000.281738
3734.399414	1979.725464
3733.658203	2060.337891
3732.916992	2016.177856
3732.174805	2056.306641
3731.433594	2042.495361
3730.691406	2042.168091
3729.949219	2126.075195
3729.207031	2139.209717
3728.464844	2054.659668
3727.722656	1943.194458
3726.980469	2064.102783
3726.237305	2057.038818
3725.495117	2117.299561
3724.751953	1982.336426
3724.008789	2029.129517
3723.266602	2099.459229
3722.523438	2031.843262
3721.779297	2068.515381
3721.036133	2118.627441
3720.292969	2104.838623
3719.548828	2050.712158
3718.805664	2141.138184
3718.061523	2070.219482
3717.317383	2096.769287
3716.573242	2056.117432
3715.829102	1918.063477
3715.084961	1978.210815
3714.339844	2038.338867
3713.595703	2081.659912
3712.850586	2188.749756
3712.106445	1976.943237
3711.361328	1949.779175
3710.616211	2090.392090
3709.871094	1996.121948
3709.125977	2019.282227
3708.379883	2052.496094
3707.634766	2062.226807
3706.888672	2075.307129
3706.143555	2091.735352
3705.397461	2034.422974
3704.651367	2117.873535
3703.905273	2027.069946
3703.159180	2103.794922
3702.412109	2086.710693
3701.666016	2150.005615
3700.918945	2119.525879
3700.172852	2095.751221
3699.425781	2112.152100
3698.678711	2162.015137
3697.931641	2037.858032
3697.184570	2134.556885
3696.436523	2204.463135
3695.689453	2043.567871
3694.942383	2066.649170
3694.194336	2073.005127
3693.446289	2122.818115
3692.698242	2089.053223
3691.950195	2155.557373
3691.202148	2141.846436
3690.454102	2071.344727
3689.705078	2114.437500
3688.957031	2094.059814
3688.208008	2177.206055
3687.459961	2136.792480
3686.710938	2163.155762
3685.961914	2152.796143
3685.212891	2089.045654
3684.462891	2175.462402
3683.713867	2161.769775
3682.963867	2124.732422
3682.214844	2161.076904
3681.464844	2147.392822
3680.714844	2183.722168
3679.964844	2186.705566
3679.214844	2189.687988
3678.464844	2259.316162
3677.713867	2125.682373
3676.963867	2248.598389
3676.212891	2244.907471
3675.462891	2211.245850
3674.711914	2304.121826
3673.960938	2350.360596
3673.209961	2196.868896
3672.458984	2256.421875
3671.707031	2325.938232
3670.956055	2149.235107
3670.204102	2195.461182
3669.452148	2284.909424
3668.701172	2271.241943
3667.949219	2310.776123
3667.197266	2223.973633
3666.444336	2303.388184
3665.692383	2336.251953
3664.940430	2315.941162
3664.187500	2239.159668
3663.434570	2262.052490
3662.681641	2261.690186
3661.929688	2354.304443
3661.175781	2417.008545
3660.422852	2370.147949
3659.669922	2237.008057
3658.916992	2316.292969
3658.163086	2289.378418
3657.409180	2325.503174
3656.655273	2308.546143
3655.902344	2397.717529
3655.147461	2337.648926
3654.393555	2367.111816
3653.639648	2479.434082
3652.885742	2353.096436
3652.130859	2395.797607
3651.375977	2415.292725
3650.622070	2431.468750
3649.867188	2348.276855
3649.112305	2434.001465
3648.356445	2327.658203
3647.601563	2320.664307
3646.846680	2542.061035
3646.090820	2452.298584
3645.334961	2544.555420
3644.580078	2517.680664
3643.824219	2533.816650
3643.068359	2444.112793
3642.312500	2506.550537
3641.555664	2529.292725
3640.799805	2482.607178
3640.042969	2492.125000
3639.287109	2640.436279
3638.530273	2583.842773
3637.773438	2527.267334
3637.016602	2526.862549
3636.259766	2509.944824
3635.501953	2555.771240
3634.745117	2436.507568
3633.988281	2584.661133
3633.230469	2597.448730
3632.472656	2593.732666
3631.714844	2580.119629
3630.957031	2672.074219
3630.199219	2585.889648
3629.441406	2529.412842
3628.682617	2631.222900
3627.924805	2630.801514
3627.166016	2640.268555
3626.407227	2623.367188
3625.649414	2688.850098
3624.890625	2747.722656
3624.130859	2737.400391
3623.372070	2707.319580
3622.613281	2683.834473
3621.853516	2680.112061
3621.094727	2646.762695
3620.334961	2639.755859
3619.575195	2580.095947
3618.815430	2619.167480
3618.055664	2694.415283
3617.294922	2776.217529
3616.535156	2617.908936
3615.775391	2739.156738
3615.014648	2748.581299
3614.253906	2518.033447
3613.493164	2639.238770
3612.732422	2783.408691
3611.971680	2674.535645
3611.210938	2756.235840
3610.449219	2670.394287
3609.688477	2784.909668
3608.926758	2741.777100
3608.166016	2728.205811
3607.404297	2724.486084
3606.642578	2868.457031
3605.879883	2625.169434
3605.118164	2782.233887
3604.356445	2775.227295
3603.593750	2659.986572
3602.832031	2784.176270
3602.069336	2659.134521
3601.306641	2717.718018
3600.543945	2681.227051
3599.781250	2700.460938
3599.018555	2837.651123
3598.254883	2748.739014
3597.492188	2722.093262
3596.728516	2603.751465
3595.964844	2727.770264
3595.201172	2864.845947
3594.437500	2766.179443
3593.673828	2736.278809
3592.910156	2696.570068
3592.146484	2863.010498
3591.381836	2702.249023
3590.617188	2688.732178
3589.853516	2815.848633
3589.088867	2815.397461
3588.324219	2788.791260
3587.559570	2703.354004
3586.793945	2833.654785
3586.029297	2722.094971
3585.263672	2751.064453
3584.499023	2819.226074
3583.733398	2867.768066
3582.967773	2886.903076
3582.202148	2837.462402
3581.436523	2830.478516
3580.670898	2784.326904
3579.904297	2783.880859
3579.138672	2783.434814
3578.372070	2805.827148
3577.605469	2818.425781
3576.838867	2762.528076
3576.072266	2908.831543
3575.305664	2702.953857
3574.539063	2868.779785
3573.771484	2702.087891
3573.004883	2812.458740
3572.237305	2844.592285
3571.469727	2857.168213
3570.703125	2811.107422
3569.935547	2795.034424
3569.166992	2778.961182
3568.399414	2762.888184
3567.631836	2746.814941
3566.863281	2730.741943
3566.094727	2818.168945
3565.327148	2856.761963
3564.558594	2794.493652
3563.790039	2722.487305
3563.021484	2679.772949
3562.251953	2861.435059
3561.483398	2701.672363
3560.713867	2873.520752
3559.945313	2678.056152
3559.175781	2781.612793
3558.406250	2761.672852
3557.636719	2855.437012
3556.867188	2770.531982
3556.096680	2708.386230
3555.327148	2912.510010
3554.556641	2778.939941
3553.787109	2804.461914
3553.016602	2690.424072
3552.246094	2800.318604
3551.475586	2738.227295
3550.705078	2721.569580
3549.933594	2640.050781
3549.163086	2707.726318
3548.391602	2707.292725
3547.621094	2680.924805
3546.849609	2806.903320
3546.078125	2806.453613
3545.306641	2643.994385
3544.535156	2737.521240
3543.762695	2694.973877
3542.991211	2769.030518
3542.218750	2745.920166
3541.446289	2648.352295
3540.674805	2677.061768
3539.902344	2734.890869
3539.129883	2569.414795
3538.356445	2737.250000
3537.583984	2613.881592
3536.811523	2681.386963
3536.038086	2697.127197
3535.264648	2712.862305
3534.491211	2699.495850
3533.717773	2705.528076
3532.944336	2747.109375
3532.170898	2691.735840
3531.397461	2688.073730
3530.623047	2736.098145
3529.849609	2638.765137
3529.075195	2667.406006
3528.300781	2699.266602
3527.526367	2608.442383
3526.751953	2808.145264
3525.977539	2691.514893
3525.202148	2703.990479
3524.427734	2603.544922
3523.652344	2635.384766
3522.876953	2599.485596
3522.101563	2647.438965
3521.326172	2708.273193
3520.550781	2620.801758
3519.775391	2613.935547
3519.000000	2587.736084
3518.223633	2764.535156
3517.447266	2689.996582
3516.671875	2625.144775
3515.895508	2682.693604
3515.119141	2604.983643
3514.342773	2575.590820
3513.565430	2749.002686
3512.789063	2549.018066
3512.011719	2619.404297
3511.235352	2660.811035
3510.458008	2557.443604
3509.680664	2685.689697
3508.903320	2620.941650
3508.125977	2675.183105
3507.347656	2649.035645
3506.570313	2632.539551
3505.791992	2509.992432
3505.014648	2634.909180
3504.236328	2721.232422
3503.458008	2685.461182
3502.679688	2524.443115
3501.901367	2581.840820
3501.122070	2571.795166
3500.343750	2683.740479
3499.564453	2670.471680
3498.786133	2705.344971
3498.006836	2701.702637
3497.227539	2633.898438
3496.448242	2588.569336
3495.668945	2524.011963
3494.888672	2626.219238
3494.109375	2548.852051
3493.329102	2667.050293
3492.548828	2624.957031
3491.769531	2624.536377
3490.989258	2515.178223
3490.208008	2665.341309
3489.427734	2623.274902
3488.647461	2529.981934
3487.866211	2529.576416
3487.085938	2612.409668
3486.304688	2698.417236
3485.523438	2585.968994
3484.742188	2735.951904
3483.960938	2498.755615
3483.179688	2565.532471
3482.397461	2513.946777
3481.616211	2574.303955
3480.833984	2561.102051
3480.051758	2525.525879
3479.269531	2614.619141
3478.487305	2553.479248
3477.705078	2616.976807
3476.922852	2437.647461
3476.139648	2577.806396
3475.357422	2721.114014
3474.574219	2551.434082
3473.791016	2621.266113
3473.007813	2639.999512
3472.224609	2543.823975
3471.441406	2565.755127
3470.658203	2552.581055
3469.874023	2625.546875
3469.090820	2519.865967
3468.306641	2602.381104
3467.522461	2586.020752
3466.738281	2531.407471
3465.954102	2479.999023
3465.169922	2581.590576
3464.385742	2609.856445
3463.600586	2564.832520
3462.815430	2659.989990
3462.031250	2513.048828
3461.246094	2538.122803
3460.460938	2547.268311
3459.675781	2460.903564
3458.890625	2450.959961
3458.104492	2409.194092
3457.319336	2564.728027
3456.533203	2545.227783
3455.747070	2554.363037
3454.960938	2573.036621
3454.174805	2582.164307
3453.388672	2467.288818
3452.602539	2581.336914
3451.815430	2603.172363
3451.029297	2675.848389
3450.242188	2446.642578
3449.455078	2601.921143
3448.667969	2528.446045
3447.880859	2528.040771
3447.093750	2537.161865
3446.306641	2536.755127
3445.518555	2520.476563
3444.731445	2599.419922
3443.943359	2322.918701
3443.155273	2544.647949
3442.367188	2445.896729
3441.579102	2531.144775
3440.791016	2476.826172
3440.002930	2603.262939
3439.213867	2498.224609
3438.425781	2507.333740
3437.636719	2510.101074
3436.847656	2566.737549
3436.058594	2512.464844
3435.269531	2464.545410
3434.480469	2508.492432
3433.690430	2536.591309
3432.901367	2542.517334
3432.111328	2434.473633
3431.321289	2459.405518
3430.531250	2383.057373
3429.741211	2401.660889
3428.951172	2521.497803
3428.161133	2562.215820
3427.370117	2520.689697
3426.580078	2472.852295
3425.789063	2529.366699
3424.998047	2449.931396
3424.207031	2398.967529
3423.416016	2512.349609
3422.625000	2474.030762
3421.833984	2438.883301
3421.041992	2646.964600
3420.250977	2513.897461
3419.458984	2466.129639
3418.666992	2412.062744
3417.875000	2582.135010
3417.083008	2395.508789
3416.291016	2439.303711
3415.498047	2413.671631
3414.706055	2593.098145
3413.913086	2466.517822
3413.120117	2409.357422
3412.327148	2484.645752
3411.534180	2528.383789
3410.741211	2417.655273
3409.948242	2537.028076
3409.155273	2404.275879
3408.361328	2498.407959
3407.567383	2523.208008
