#Wave		#Intensity
4002.106445	2129.791992
4001.408203	2054.622803
4000.709961	2007.766846
4000.010742	2007.444092
3999.312500	1992.810425
3998.613281	2003.221802
3997.914063	2085.161865
3997.215820	2052.642334
3996.516602	1987.954224
3995.816406	2001.934326
3995.117188	2119.564697
3994.417969	1976.274780
3993.717773	2025.981445
3993.018555	2022.083252
3992.318359	2107.486572
3991.618164	1967.861938
3990.917969	2031.821289
3990.217773	2042.205566
3989.517578	2002.610596
3988.817383	2002.288818
3988.117188	1955.575684
3987.416016	1916.013428
3986.715820	1994.188843
3986.014648	2100.874023
3985.313477	2075.572510
3984.612305	2025.319092
3983.911133	1996.472656
3983.209961	1971.199951
3982.507813	1988.703247
3981.806641	1991.947021
3981.105469	2023.692627
3980.403320	2044.741089
3979.701172	1877.012939
3978.999023	1976.422729
3978.296875	2057.997803
3977.594727	2068.347168
3976.892578	2142.762451
3976.190430	2003.623657
3975.487305	2102.933105
3974.785156	2024.326050
3974.082031	2024.000854
3973.378906	1984.553711
3972.675781	2044.686523
3971.972656	2161.686523
3971.269531	2132.900391
3970.566406	1986.833008
3969.862305	2146.430176
3969.159180	1964.876099
3968.455078	2078.242188
3967.751953	2006.868652
3967.047852	2013.649048
3966.343750	1992.020630
3965.639648	2087.557861
3964.935547	2080.123291
3964.230469	2129.476807
3963.526367	2015.580933
3962.821289	2025.901245
3962.117188	1986.554199
3961.412109	2113.921631
3960.707031	2078.119385
3960.001953	2035.237061
3959.296875	2070.361572
3958.591797	2027.494263
3957.885742	1977.552612
3957.180664	2065.820801
3956.474609	1980.460327
3955.769531	2040.361206
3955.063477	2057.742188
3954.357422	2068.035156
3953.651367	1975.647705
3952.945313	1993.030518
3952.238281	2035.183960
3951.532227	2158.718018
3950.825195	2165.447998
3950.119141	1984.675171
3949.412109	1984.356445
3948.705078	1991.110962
3947.998047	2079.192383
3947.291016	2011.684448
3946.583984	2036.105713
3945.876953	2049.916016
3945.168945	1961.242676
3944.461914	2059.857422
3943.753906	1985.341309
3943.045898	2013.279053
3942.337891	1914.073730
3941.629883	2033.818237
3940.921875	2114.690186
3940.213867	2022.575684
3939.504883	1958.724731
3938.796875	1979.582275
3938.087891	1982.792480
3937.379883	2081.245117
3936.670898	2133.815430
3935.961914	1897.203979
3935.252930	1956.838623
3934.543945	2086.959473
3933.833984	2100.723145
3933.125000	1966.468628
3932.415039	1990.817871
3931.706055	1986.975342
3930.996094	2011.313354
3930.286133	1961.684204
3929.576172	2000.103760
3928.866211	1992.741089
3928.156250	2066.344971
3927.445313	2058.974121
3926.735352	2044.567261
3926.024414	2012.572754
3925.314453	1917.265869
3924.603516	2018.961304
3923.892578	2015.120361
3923.181641	2028.861816
3922.470703	1944.160278
3921.758789	1943.848145
3921.047852	2122.777344
3920.335938	1960.794067
3919.625000	2041.287598
3918.913086	1998.805786
3918.201172	2044.144531
3917.489258	2026.257935
3916.777344	2085.622070
3916.065430	2001.033325
3915.352539	2120.052979
3914.640625	2035.485596
3913.927734	1979.016602
3913.215820	2073.423828
3912.502930	2034.505615
3911.790039	2013.135864
3911.077148	2002.292847
3910.364258	1991.453247
3909.650391	2131.354248
3908.937500	2057.408203
3908.224609	2018.529663
3907.510742	2000.686523
3906.796875	2028.391602
3906.083008	2010.552490
3905.369141	2115.294189
3904.655273	1918.866089
3903.941406	2009.584717
3903.227539	2166.782715
3902.512695	2082.437500
3901.798828	1938.630615
3901.083984	2120.255615
3900.369141	1906.524536
3899.654297	2053.119873
3898.939453	1989.842773
3898.224609	2013.999146
3897.509766	2069.611328
3896.793945	2174.141357
3896.079102	1922.163818
3895.363281	1946.315308
3894.648438	2071.777100
3893.932617	1917.745483
3893.216797	2067.619629
3892.500977	1986.970825
3891.784180	2115.836670
3891.068359	1902.551147
3890.352539	2017.427734
3889.635742	2020.593872
3888.918945	2027.248047
3888.203125	2075.764404
3887.486328	1988.228271
3886.769531	1966.983887
3886.051758	2088.713379
3885.334961	2053.513672
3884.618164	1969.523071
3883.900391	1990.119019
3883.183594	2010.708252
3882.465820	1996.448853
3881.748047	1940.390259
3881.030273	1933.112671
3880.312500	1950.215210
3879.594727	2026.505615
3878.875977	1987.885010
3878.158203	2071.106445
3877.439453	1942.003296
3876.721680	1920.813354
3876.002930	2004.005493
3875.284180	2000.205322
3874.565430	1867.718140
3873.846680	1999.563599
3873.127930	1964.473389
3872.408203	2002.398438
3871.689453	2068.117920
3870.969727	2130.341064
3870.250000	2043.131470
3869.530273	2032.381226
3868.810547	1997.319214
3868.090820	1983.106567
3867.371094	2118.215332
3866.651367	2103.987793
3865.930664	2009.923340
3865.210938	1971.421997
3864.490234	2030.100098
3863.769531	2061.001709
3863.048828	1866.399170
3862.328125	2001.374634
3861.607422	2049.605957
3860.886719	1969.525269
3860.165039	2066.283203
3859.444336	1923.830811
3858.722656	2065.620361
3858.000977	1971.727173
3857.279297	2061.492920
3856.557617	2095.803711
3855.835938	2046.977295
3855.114258	1998.166626
3854.392578	2004.771118
3853.669922	2059.840088
3852.948242	1997.205322
3852.225586	2028.032227
3851.502930	2003.485229
3850.780273	2044.680176
3850.057617	2096.239258
3849.334961	2033.648560
3848.612305	2095.566895
3847.888672	1998.421509
3847.166016	2053.411865
3846.442383	1932.109497
3845.718750	2114.957764
3844.995117	1969.497681
3844.271484	2034.821167
3843.547852	2013.770020
3842.824219	2172.312500
3842.100586	2006.218018
3841.375977	2050.778564
3840.651367	1977.959106
3839.927734	2098.440186
3839.203125	2046.341309
3838.478516	2008.060059
3837.753906	2062.933594
3837.029297	2145.382813
3836.303711	2031.234375
3835.579102	2079.181641
3834.853516	1992.660400
3834.128906	1988.893921
3833.403320	2057.502930
3832.677734	2112.306641
3831.952148	1994.827759
3831.226563	2090.960693
3830.500000	1928.748413
3829.774414	2093.733887
3829.047852	1972.890015
3828.322266	2027.654175
3827.595703	2030.771118
3826.869141	1965.058228
3826.142578	2023.238037
3825.416016	2077.958984
3824.689453	1974.432373
3823.961914	1970.676514
3823.235352	2011.624634
3822.507813	2028.492676
3821.781250	2031.604980
3821.053711	2000.346069
3820.326172	2113.428711
3819.598633	2061.551025
3818.871094	2068.091309
3818.142578	2033.411499
3817.415039	2012.479858
3816.686523	2111.734863
3815.958984	2008.401367
3815.230469	2035.540283
3814.501953	2031.781860
3813.773438	2004.004028
3813.044922	1972.803955
3812.316406	1972.487671
3811.586914	1999.610352
3810.858398	2061.017334
3810.128906	2022.970581
3809.399414	2060.356445
3808.669922	2036.032593
3807.940430	1847.214844
3807.210938	2014.820313
3806.481445	2031.627441
3805.751953	2072.407227
3805.021484	1989.876953
3804.291992	2082.015869
3803.561523	2061.139160
3802.831055	1971.803711
3802.100586	2009.137573
3801.370117	2008.815430
3800.639648	2094.033936
3799.909180	2056.066406
3799.177734	2018.110962
3798.447266	2004.107544
3797.715820	1962.753052
3796.984375	2058.167236
3796.252930	2047.582153
3795.521484	2071.178467
3794.790039	1992.249878
3794.058594	2114.931396
3793.327148	1984.778931
3792.594727	1991.291870
3791.862305	2055.858643
3791.130859	2062.357910
3790.398438	2164.446045
3789.666016	2030.976196
3788.933594	2088.669189
3788.201172	2020.088135
3787.467773	1951.529053
3786.735352	2016.029297
3786.001953	1950.903442
3785.268555	2063.124756
3784.536133	2021.879150
3783.802734	2089.735596
3783.069336	2062.132813
3782.334961	2027.722900
3781.601563	1966.064819
3780.868164	2156.532959
3780.133789	2006.310059
3779.399414	2152.435791
3778.666016	2131.659668
3777.931641	2046.201416
3777.197266	2052.681641
3776.462891	2028.527588
3775.727539	2099.666016
3774.993164	2116.341797
3774.257813	2092.188965
3773.523438	1993.213379
3772.788086	2108.522705
3772.052734	2128.586426
3771.317383	2203.039795
3770.582031	2042.923950
3769.846680	2056.191162
3769.110352	2059.259766
3768.375000	2007.965942
3767.638672	2028.026367
3766.903320	2010.718872
3766.166992	2030.772217
3765.430664	2159.471680
3764.694336	1938.460327
3763.958008	2019.612915
3763.220703	2107.527100
3762.484375	2018.965576
3761.747070	2001.678589
3761.010742	2045.455566
3760.273438	2075.652100
3759.536133	2071.928223
3758.798828	2115.672607
3758.061523	2142.453369
3757.323242	1982.807373
3756.585938	2043.489258
3755.847656	2070.268311
3755.110352	2130.916748
3754.372070	2049.281494
3753.633789	2082.820068
3752.895508	2112.961670
3752.157227	2193.877686
3751.418945	2071.663574
3750.679688	2095.023193
3749.941406	1976.247925
3749.202148	2026.682861
3748.462891	2165.056885
3747.723633	2107.209961
3746.984375	2012.181274
3746.245117	2113.297119
3745.505859	2123.100586
3744.766602	2102.479248
3744.026367	2173.114990
3743.287109	2115.321777
3742.546875	2121.739990
3741.806641	2057.217529
3741.066406	2202.119629
3740.326172	2043.050293
3739.585938	2117.003662
3738.845703	2072.778320
3738.104492	2126.451172
3737.364258	2139.609619
3736.623047	2142.640869
3735.881836	2054.581543
3735.140625	2084.610596
3734.399414	2222.553711
3733.658203	2097.430908
3732.916992	2134.181641
3732.174805	2079.903564
3731.433594	2167.202148
3730.691406	2089.346924
3729.949219	2099.120117
3729.207031	2095.415039
3728.464844	2276.967041
3727.722656	2050.962646
3726.980469	2128.079834
3726.237305	2137.838867
3725.495117	2056.708984
3724.751953	2100.132324
3724.008789	2096.430664
3723.266602	2082.636719
3722.523438	2082.302979
3721.779297	2122.330566
3721.036133	2084.998535
3720.292969	2047.678467
3719.548828	2165.014160
3718.805664	2114.248047
3718.061523	2150.877441
3717.317383	2130.371338
3716.573242	2146.828369
3715.829102	2173.357422
3715.084961	2115.913086
3714.339844	2179.377197
3713.595703	2121.950195
3712.850586	2185.392578
3712.106445	2181.686035
3711.361328	2077.303467
3710.616211	2070.260010
3709.871094	2103.476563
3709.125977	2190.350830
3708.379883	2129.632324
3707.634766	2219.827881
3706.888672	2142.360596
3706.143555	2209.060303
3705.397461	2168.487061
3704.651367	2050.852295
3703.905273	2268.308105
3703.159180	2160.744873
3702.412109	2180.495361
3701.666016	2247.124268
3700.918945	2166.403076
3700.172852	2112.490479
3699.425781	2202.529297
3698.678711	2295.885986
3697.931641	2272.094482
3697.184570	2094.408447
3696.436523	2244.605225
3695.689453	2297.759521
3694.942383	2203.756836
3694.194336	2266.931396
3693.446289	2092.730957
3692.698242	2212.725098
3691.950195	2165.583252
3691.202148	2188.626221
3690.454102	2228.366211
3689.705078	2248.051270
3688.957031	2271.069580
3688.208008	2173.866943
3687.459961	2223.599609
3686.710938	2159.817383
3685.961914	2313.004150
3685.212891	2222.531006
3684.462891	2148.769775
3683.713867	2248.507324
3682.963867	2161.423340
3682.214844	2277.801758
3681.464844	2280.771240
3680.714844	2330.414795
3679.964844	2243.373291
3679.214844	2323.002441
3678.464844	2285.974609
3677.713867	2232.299805
3676.963867	2361.861084
3676.212891	2204.938721
3675.462891	2277.849609
3674.711914	2350.737061
3673.960938	2360.347900
3673.209961	2336.669678
3672.458984	2332.967041
3671.707031	2422.436523
3670.956055	2262.352783
3670.204102	2331.845947
3669.452148	2318.168701
3668.701172	2351.051270
3667.949219	2417.171631
3667.197266	2293.784424
3666.444336	2373.187988
3665.692383	2389.424072
3664.940430	2315.941162
3664.187500	2312.248047
3663.434570	2361.702393
3662.681641	2434.388916
3661.929688	2407.434082
3661.175781	2417.008545
3660.422852	2360.189209
3659.669922	2416.234131
3658.916992	2366.070068
3658.163086	2505.044434
3657.409180	2587.578369
3656.655273	2613.698730
3655.902344	2430.881104
3655.147461	2397.333496
3654.393555	2469.885498
3653.639648	2489.378418
3652.885742	2399.495605
3652.130859	2402.424805
3651.375977	2458.363770
3650.622070	2487.783447
3649.867188	2484.072754
3649.112305	2437.312988
3648.356445	2589.230225
3647.601563	2492.810547
3646.846680	2598.330566
3646.090820	2707.125977
3645.334961	2501.539551
3644.580078	2481.288330
3643.824219	2599.973633
3643.068359	2450.727539
3642.312500	2569.379639
3641.555664	2575.580322
3640.799805	2462.772705
3640.042969	2713.573975
3639.287109	2594.170898
3638.530273	2593.755127
3637.773438	2619.768555
3637.016602	2708.532227
3636.259766	2556.180664
3635.501953	2727.476807
3634.745117	2667.612793
3633.988281	2673.787354
3633.230469	2696.462158
3632.472656	2646.531250
3631.714844	2731.891357
3630.957031	2705.062988
3630.199219	2704.629639
3629.441406	2780.045654
3628.682617	2746.627441
3627.924805	2640.691650
3627.166016	2706.192871
3626.407227	2629.958740
3625.649414	2728.392090
3624.890625	2764.196045
3624.130859	2724.223877
3623.372070	2717.200195
3622.613281	2943.985352
3621.853516	2752.547363
3621.094727	2771.858398
3620.334961	2820.786377
3619.575195	2724.897217
3618.815430	2790.269043
3618.055664	2773.372559
3617.294922	2759.770752
3616.535156	2762.617432
3615.775391	2824.652588
3615.014648	2722.279053
3614.253906	2718.555664
3613.493164	2797.001465
3612.732422	2865.563721
3611.971680	2825.676514
3611.210938	2700.388428
3610.449219	2841.194336
3609.688477	2886.716553
3608.926758	2938.791016
3608.166016	2849.678223
3607.404297	2832.809082
3606.642578	2937.378906
3605.879883	2825.338623
3605.118164	2841.290527
3604.356445	2771.946777
3603.593750	3073.252197
3602.832031	2846.484131
3602.069336	3023.084961
3601.306641	2845.572021
3600.543945	2844.648682
3599.781250	2843.725098
3599.018555	2842.801758
3598.254883	2841.878174
3597.492188	2840.954834
3596.728516	2840.031250
3595.964844	2839.107910
3595.201172	2897.587158
3594.437500	2998.604004
3593.673828	2971.939209
3592.910156	2820.926270
3592.146484	2794.298340
3591.381836	3006.497314
3590.617188	2953.680420
3589.853516	2832.200928
3589.088867	2743.459473
3588.324219	2837.832275
3587.559570	2853.721924
3586.793945	2948.046875
3586.029297	2859.343262
3585.263672	2927.498535
3584.499023	2773.491211
3583.733398	2861.235596
3582.967773	2962.014648
3582.202148	2892.970947
3581.436523	2902.301514
3580.670898	2898.572510
3579.904297	3054.762451
3579.138672	2949.853516
3578.372070	2955.906250
3577.605469	3023.936035
3576.838867	2919.082031
3576.072266	2866.438232
3575.305664	2973.575439
3574.539063	2956.799072
3573.771484	2969.363281
3573.004883	2965.628662
3572.237305	2844.592285
3571.469727	2811.557617
3570.703125	2967.460938
3569.935547	3015.838135
3569.166992	2894.871094
3568.399414	2881.384033
3567.631836	2806.051025
3566.863281	2838.149170
3566.094727	2860.474121
3565.327148	2925.090088
3564.558594	2940.887451
3563.790039	2901.384277
3563.021484	2962.710205
3562.251953	2854.931885
3561.483398	2955.258789
3560.713867	2909.277100
3559.945313	2869.810303
3559.175781	3012.330566
3558.406250	2966.361572
3557.636719	2858.685547
3556.867188	2809.507813
3556.096680	2896.739258
3555.327148	2750.162598
3554.556641	2850.361328
3553.787109	2859.642334
3553.016602	2771.558838
3552.246094	2754.890381
3551.475586	3007.508057
3550.705078	2825.372070
3549.933594	2941.678223
3549.163086	2931.478760
3548.391602	2914.797607
3547.621094	2839.770508
3546.849609	2823.109375
3546.078125	2835.619873
3545.306641	2806.003906
3544.535156	2837.951172
3543.762695	2895.801025
3542.991211	2872.666748
3542.218750	2943.445068
3541.446289	2878.221680
3540.674805	2845.389648
3539.902344	2809.331787
3539.129883	2808.881592
3538.356445	2753.427734
3537.583984	2762.691650
3536.811523	2804.297363
3536.038086	2874.995117
3535.264648	2832.499756
3534.491211	2786.784912
3533.717773	2880.078369
3532.944336	2840.834229
3532.170898	2756.363281
3531.397461	2794.691895
3530.623047	2810.395996
3529.849609	2881.001709
3529.075195	2796.578125
3528.300781	2967.255859
3527.526367	2769.855957
3526.751953	2643.529785
3525.977539	2704.423828
3525.202148	2807.245605
3524.427734	2774.533691
3523.652344	2641.836182
3522.876953	2705.916260
3522.101563	2808.671387
3521.326172	2705.049072
3520.550781	2852.902100
3519.775391	2652.612793
3519.000000	2777.868652
3518.223633	2725.870361
3517.447266	2744.762939
3516.671875	2734.660156
3515.895508	2727.781006
3515.119141	2727.343750
3514.342773	2771.979736
3513.565430	2681.404297
3512.789063	2809.712891
3512.011719	2818.916748
3511.235352	2763.768799
3510.458008	2644.300293
3509.680664	2775.748779
3508.903320	2756.008789
3508.125977	2707.336670
3507.347656	2832.281982
3506.570313	2728.969482
3505.791992	2747.815186
3505.014648	2779.507813
3504.236328	2634.487061
3503.458008	2730.433105
3502.679688	2758.901367
3501.901367	2681.389404
3501.122070	2661.695557
3500.343750	2725.473389
3499.564453	2648.003906
3498.786133	2634.742676
3498.006836	2717.746094
3497.227539	2637.106689
3496.448242	2835.558105
3495.668945	2732.475586
3494.888672	2738.450928
3494.109375	2738.012207
3493.329102	2785.657227
3492.548828	2733.929688
3491.769531	2685.423096
3490.989258	2617.707764
3490.208008	2690.969727
3489.427734	2671.320313
3488.647461	2699.714844
3487.866211	2628.838379
3487.085938	2759.677979
3486.304688	2692.015381
3485.523438	2643.577148
3484.742188	2630.353760
3483.960938	2735.513428
3483.179688	2741.472900
3482.397461	2766.620850
3481.616211	2654.251221
3480.833984	2602.667969
3480.051758	2682.172607
3479.269531	2774.437012
3478.487305	2738.838135
3477.705078	2671.297363
3476.922852	2731.570801
3476.139648	2635.303955
3475.357422	2756.245850
3474.574219	2653.619141
3473.791016	2809.639648
3473.007813	2617.653809
3472.224609	2665.110596
3471.441406	2658.301025
3470.658203	2740.833984
3469.874023	2686.160889
3469.090820	2701.678955
3468.306641	2662.975830
3467.522461	2713.567871
3466.738281	2636.616943
3465.954102	2588.379639
3465.169922	2702.702148
3464.385742	2657.656006
3463.600586	2634.927246
3462.815430	2628.133789
3462.031250	2694.599854
3461.246094	2748.306152
3460.460938	2652.343018
3459.675781	2632.816650
3458.890625	2702.422119
3458.104492	2622.425049
3457.319336	2752.468750
3456.533203	2771.116699
3455.747070	2716.595215
3454.960938	2712.979492
3454.174805	2652.124512
3453.388672	2724.827881
3452.602539	2574.978760
3451.815430	2622.243408
3451.029297	2729.874023
3450.242188	2611.870605
3449.455078	2643.221436
3448.667969	2696.797119
3447.880859	2648.726074
3447.093750	2610.196533
3446.306641	2676.451416
3445.518555	2615.708740
3444.731445	2596.246094
3443.943359	2624.390381
3443.155273	2700.118896
3442.367188	2623.549316
3441.579102	2569.207275
3440.791016	2622.708496
3440.002930	2549.358643
3439.213867	2653.571045
3438.425781	2656.315674
3437.636719	2557.640869
3436.847656	2706.165283
3436.058594	2525.138184
3435.269531	2578.585938
3434.480469	2562.336182
3433.690430	2707.597412
3432.901367	2618.507813
3432.111328	2627.585449
3431.321289	2586.015869
3430.531250	2569.777588
3429.741211	2642.143311
3428.951172	2537.316650
3428.161133	2688.744873
3427.370117	2678.825684
3426.580078	2602.503174
3425.789063	2519.881592
3424.998047	2614.313721
3424.207031	2534.877441
3423.416016	2654.558105
3422.625000	2714.166748
3421.833984	2577.886963
3421.041992	2533.252441
3420.250977	2523.371826
3419.458984	2504.021484
3418.666992	2680.420410
3417.875000	2560.038330
3417.083008	2603.813965
3416.291016	2609.707764
3415.498047	2558.807617
3414.706055	2612.025879
3413.913086	2532.754395
3413.120117	2567.038086
3412.327148	2569.779541
3411.534180	2613.504150
3410.741211	2546.891113
3409.948242	2581.150391
3409.155273	2571.283203
3408.361328	2482.655029
3407.567383	2516.907715
