#Wave		#Intensity
4002.039063	2197.767822
4001.340820	2068.908447
4000.642578	2036.366333
3999.943359	2104.026367
3999.245117	2207.441406
3998.545898	2074.733154
3997.846680	2221.038086
3997.147461	2263.593018
3996.448242	2163.117920
3995.749023	2177.069580
3995.049805	2048.046631
3994.350586	2154.927979
3993.650391	2165.301025
3992.951172	2197.105713
3992.250977	2178.892822
3991.550781	2182.114014
3990.850586	2106.776611
3990.150391	2152.851074
3989.450195	2163.214111
3988.750000	2170.004639
3988.048828	2237.457764
3987.348633	2080.108887
3986.647461	2179.660889
3985.947266	2132.942383
3985.246094	2164.695557
3984.544922	2139.388184
3983.843750	2245.996826
3983.141602	2202.861816
3982.440430	2084.898193
3981.739258	2113.070068
3981.037109	2069.977295
3980.334961	2098.142334
3979.633789	2062.188965
3978.931641	2175.811768
3978.229492	2193.264648
3977.527344	2107.474121
3976.824219	2132.051025
3976.122070	2160.178711
3975.419922	2127.807861
3974.716797	2074.101318
3974.013672	2073.768311
3973.311523	2162.347412
3972.608398	2215.338867
3971.905273	2229.204346
3971.201172	2232.401123
3970.498047	2121.862061
3969.794922	2253.005615
3969.090820	2121.180420
3968.387695	2145.707031
3967.683594	2045.908569
3966.979492	2141.466553
3966.275391	2070.106689
3965.571289	2076.874756
3964.867188	2119.136963
3964.163086	2065.560303
3963.458008	2104.262207
3962.753906	2040.061401
3962.048828	2156.796631
3961.343750	2103.248291
3960.638672	2113.549316
3959.933594	2060.024902
3959.228516	2119.960449
3958.523438	2073.541260
3957.817383	1995.241455
3957.112305	1959.487305
3956.406250	2079.627930
3955.701172	2196.187988
3954.995117	2153.335205
3954.289063	2064.461914
3953.583008	1996.860229
3952.876953	2070.878662
3952.169922	2077.625000
3951.463867	2024.208862
3950.757813	2087.572510
3950.050781	2119.076416
3949.343750	2122.273193
3948.636719	2022.908936
3947.929688	2153.415527
3947.222656	2128.321777
3946.515625	2156.259033
3945.808594	2088.761230
3945.100586	2123.762939
3944.393555	2059.825439
3943.685547	2161.939453
3942.977539	1999.119629
3942.269531	1988.204346
3941.561523	2171.490723
3940.853516	2044.050903
3940.145508	2114.317627
3939.436523	2029.277832
3938.728516	2025.423340
3938.019531	1993.345825
3937.311523	2067.102783
3936.602539	2098.513184
3935.893555	1950.069580
3935.184570	1974.437012
3934.474609	2090.452148
3933.765625	2076.017822
3933.056641	2114.449463
3932.346680	2026.022095
3931.636719	2050.357422
3930.927734	2032.416382
3930.217773	1986.306396
3929.507813	2102.188965
3928.797852	2052.561768
3928.086914	2105.034180
3927.376953	2013.187622
3926.666992	1942.484619
3925.956055	2047.725708
3925.245117	2036.843384
3924.534180	1952.101196
3923.823242	1979.921631
3923.112305	2095.637451
3922.401367	1982.801636
3921.690430	2021.148804
3920.979492	2070.027100
3920.267578	1981.846924
3919.555664	2013.149048
3918.844727	2062.004883
3918.132813	2026.551636
3917.420898	2061.343018
3916.708984	2029.412231
3915.996094	1969.407471
3915.284180	1962.071411
3914.572266	2060.019775
3913.859375	2056.180176
3913.146484	2045.325439
3912.433594	2037.981689
3911.720703	1981.540161
3911.007813	1963.689209
3910.294922	2037.000610
3909.582031	2089.255615
3908.869141	2032.841797
3908.155273	2018.498291
3907.441406	2119.783691
3906.728516	2024.856812
3906.014648	2126.108643
3905.300781	2094.248779
3904.586914	1911.833252
3903.872070	2020.056274
3903.158203	2058.236572
3902.444336	1977.409912
3901.729492	1966.594727
3901.014648	1910.299561
3900.300781	2032.428467
3899.585938	2021.609497
3898.871094	1982.817749
3898.155273	2062.918457
3897.440430	2024.132324
3896.725586	2149.640137
3896.009766	1981.545288
3895.294922	2012.675415
3894.579102	1935.491699
3893.863281	2057.439941
3893.147461	1976.781128
3892.431641	2025.351807
3891.715820	2108.821045
3890.999023	2070.083008
3890.283203	1985.983643
3889.566406	1968.216187
3888.850586	1971.389526
3888.133789	1932.698364
3887.416992	1960.292725
3886.700195	2050.653320
3885.983398	1886.437866
3885.265625	1997.699585
3884.548828	2021.779785
3883.831055	1944.779541
3883.114258	1982.799316
3882.396484	2041.711670
3881.678711	1971.712280
3880.960938	1908.701416
3880.243164	1950.184814
3879.525391	1981.209229
3878.806641	1949.559082
3878.088867	2011.900635
3877.370117	1966.334839
3876.652344	1941.661621
3875.933594	2038.765503
3875.214844	1958.431396
3874.496094	1961.595215
3873.777344	2034.306885
3873.057617	2100.041504
3872.338867	2005.843628
3871.619141	1970.764038
3870.900391	1987.823975
3870.180664	1911.062622
3869.460938	1990.660400
3868.741211	2004.235229
3868.021484	1920.562012
3867.301758	1895.946899
3866.581055	1996.327026
3865.861328	1971.707642
3865.140625	1936.683716
3864.420898	2040.479126
3863.700195	1995.046387
3862.979492	1918.406372
3862.258789	1970.126709
3861.538086	1976.746582
3860.816406	2024.973389
3860.095703	1931.043213
3859.374023	2010.458618
3858.653320	2069.053955
3857.931641	1940.509766
3857.209961	1992.168091
3856.488281	2009.168945
3855.766602	1981.138428
3855.044922	1953.116943
3854.322266	1911.254639
3853.600586	1997.494629
3852.877930	1983.328979
3852.156250	2034.922119
3851.433594	2058.817139
3850.710938	1961.616943
3849.988281	1957.843262
3849.264648	1985.197510
3848.541992	1905.345581
3847.819336	1956.901367
3847.095703	2015.354248
3846.372070	2004.662109
3845.649414	1900.667725
3844.925781	1876.176514
3844.202148	1944.968628
3843.478516	1975.743530
3842.753906	1940.891235
3842.030273	1988.921875
3841.305664	2005.864990
3840.582031	1905.438721
3839.857422	1887.876587
3839.132813	1918.630737
3838.408203	2070.132813
3837.683594	2042.203491
3836.958984	2014.283081
3836.234375	1910.503174
3835.508789	2010.189087
3834.783203	1923.680298
3834.058594	2012.991211
3833.333008	1916.170654
3832.607422	1988.225098
3831.881836	2015.468262
3831.156250	1863.578613
3830.430664	2063.039795
3829.704102	2035.160278
3828.978516	1842.023926
3828.251953	1858.941040
3827.525391	1889.620239
3826.798828	1940.937988
3826.072266	1944.067505
3825.345703	1912.793335
3824.619141	1950.323608
3823.892578	1915.619141
3823.165039	1856.855347
3822.437500	1983.766235
3821.710938	1945.635376
3820.983398	1890.332031
3820.255859	1962.193604
3819.528320	1893.161621
3818.800781	1906.599365
3818.072266	1844.467896
3817.344727	1820.132690
3816.616211	1905.682373
3815.888672	1867.612671
3815.160156	1884.475952
3814.431641	1911.629883
3813.703125	2017.698608
3812.974609	1945.326050
3812.245117	1890.128418
3811.516602	1934.412842
3810.788086	1944.390503
3810.058594	2005.795532
3809.329102	1912.913574
3808.599609	1922.889771
3807.870117	1943.143799
3807.140625	1997.656494
3806.411133	1921.964966
3805.681641	1942.209351
3804.951172	1876.825562
3804.221680	1999.799927
3803.491211	1865.952515
3802.760742	1906.731934
3802.030273	1855.086182
3801.299805	1919.809082
3800.569336	2028.991577
3799.837891	1891.825317
3799.107422	1956.511108
3798.375977	1945.937622
3797.645508	1979.819458
3796.914063	1904.287842
3796.182617	1883.472900
3795.451172	1917.348267
3794.719727	1968.298584
3793.988281	1831.317627
3793.255859	1902.761841
3792.524414	1991.260986
3791.791992	1854.341919
3791.059570	1884.774658
3790.327148	1969.820068
3789.594727	1897.823853
3788.862305	1883.868408
3788.129883	1962.048340
3787.397461	1924.205078
3786.664063	1944.363525
3785.931641	1961.104980
3785.198242	1967.610718
3784.464844	1929.790527
3783.731445	2120.384033
3782.998047	1908.721313
3782.264648	1830.034058
3781.531250	1962.626831
3780.796875	1904.396729
3780.063477	1996.060181
3779.329102	1856.106445
3778.594727	1930.722412
3777.860352	1882.748413
3777.125977	1872.234375
3776.391602	1922.987061
3775.657227	1895.455078
3774.921875	2031.248291
3774.187500	1854.024902
3773.452148	1928.557007
3772.716797	2009.866943
3771.981445	1944.940063
3771.246094	1914.031006
3770.510742	1927.320923
3769.775391	1879.431396
3769.040039	2001.460571
3768.303711	1987.549683
3767.568359	1997.421997
3766.832031	1942.758911
3766.095703	1881.321533
3765.359375	2003.252319
3764.623047	1962.193726
3763.886719	1910.965454
3763.149414	2005.682983
3762.413086	2005.361572
3761.675781	1998.254883
3760.939453	1909.740601
3760.202148	1916.217529
3759.464844	1932.865356
3758.727539	1973.240967
3757.990234	1989.874268
3757.251953	1945.493652
3756.514648	1918.071289
3755.776367	1826.280396
3755.039063	1981.823364
3754.300781	1923.923584
3753.562500	1852.495605
3752.824219	1892.832031
3752.085938	1953.468750
3751.346680	1970.080688
3750.608398	1898.691040
3749.870117	2081.119141
3749.130859	1918.382813
3748.391602	1918.075317
3747.652344	1944.826416
3746.913086	1887.024658
3746.173828	2065.927002
3745.434570	1906.703979
3744.695313	2048.364258
3743.955078	1885.815308
3743.214844	1976.747681
3742.475586	2030.487061
3741.735352	1976.114136
3740.995117	1989.307129
3740.254883	1985.611450
3739.514648	1961.658813
3738.773438	1995.102539
3738.033203	1846.270996
3737.291992	1947.216919
3736.551758	2000.891846
3735.810547	2091.659668
3735.069336	1949.654053
3734.328125	2047.145874
3733.586914	1999.609497
3732.844727	2036.375366
3732.103516	1934.920776
3731.361328	1917.758789
3730.620117	2038.766479
3729.877930	1987.899902
3729.135742	2007.794067
3728.393555	2044.522949
3727.651367	2101.446289
3726.908203	2057.336426
3726.166016	1996.407471
3725.422852	2033.114502
3724.680664	2019.326538
3723.937500	2019.002930
3723.194336	2005.221558
3722.451172	2048.631348
3721.708008	2024.759277
3720.964844	2058.063232
3720.220703	1892.980347
3719.477539	2043.956665
3718.733398	2043.629150
3717.989258	2167.647461
3717.246094	1989.211792
3716.501953	2029.208496
3715.756836	1995.292480
3715.012695	2011.765503
3714.268555	2122.257080
3713.523438	2064.840332
3712.779297	2118.220215
3712.034180	2003.763550
3711.289063	2147.744141
3710.543945	2164.176514
3709.798828	2026.283936
3709.053711	2180.254150
3708.308594	2257.039795
3707.562500	2122.551758
3706.817383	2162.443115
3706.071289	2168.800781
3705.325195	2074.609863
3704.579102	2151.350830
3703.833008	2244.819336
3703.086914	2200.910645
3702.339844	2130.220459
3701.593750	2240.391602
3700.846680	2186.459473
3700.100586	2172.718018
3699.353516	2239.314941
3698.606445	2282.463379
3697.859375	2251.982178
3697.112305	2137.869141
3696.365234	2227.844727
3695.617188	2197.386475
3694.870117	2347.516357
3694.122070	2226.773926
3693.374023	2223.074219
3692.625977	2182.608887
3691.877930	2349.354004
3691.129883	2318.905273
3690.381836	2425.440186
3689.632813	2344.884766
3688.884766	2311.111328
3688.135742	2337.454834
3687.386719	2300.354736
3686.638672	2373.425537
3685.889648	2426.447266
3685.139648	2416.047119
3684.390625	2408.987061
3683.641602	2558.721436
3682.891602	2344.841064
3682.142578	2544.562012
3681.392578	2470.797119
3680.642578	2360.383545
3679.892578	2510.005615
3679.142578	2459.611328
3678.392578	2465.881836
3677.641602	2558.775391
3676.891602	2448.435791
3676.140625	2571.278320
3675.389648	2510.923828
3674.639648	2533.828857
3673.888672	2659.927490
3673.136719	2616.230469
3672.385742	2742.275391
3671.634766	2825.022705
3670.882813	2797.954590
3670.131836	2617.880615
3669.379883	2670.675049
3668.627930	2736.753906
3667.875977	2709.717041
3667.124023	2772.444092
3666.372070	2821.855957
3665.620117	2854.635986
3664.867188	2867.469482
3664.115234	2873.654297
3663.362305	2896.445068
3662.609375	2922.549805
3661.856445	2945.325439
3661.103516	3011.253662
3660.350586	3040.646729
3659.596680	3063.392090
3658.843750	3033.035645
3658.089844	3102.225342
3657.336914	3114.997803
3656.583008	3277.023193
3655.829102	3206.855957
3655.075195	3242.815674
3654.321289	3292.024414
3653.566406	3245.091309
3652.812500	3413.593994
3652.057617	3360.029053
3651.303711	3329.672607
3650.548828	3358.952393
3649.793945	3514.080322
3649.039063	3549.944092
3648.284180	3605.662109
3647.528320	3466.045410
3646.773438	3614.436768
3646.017578	3524.503906
3645.262695	3586.807861
3644.506836	3794.658203
3643.750977	3734.509766
3642.995117	3700.838623
3642.239258	3763.073975
3641.482422	3821.982910
3640.726563	3913.929688
3639.969727	3754.655273
3639.213867	3826.755615
3638.457031	3955.002197
3637.700195	4003.922119
3636.943359	4075.947510
3636.186523	4223.907227
3635.429688	4081.245605
3634.671875	3998.055420
3633.915039	4136.053711
3633.157227	4184.896973
3632.399414	4058.831543
3631.641602	4295.733398
3630.883789	4199.379883
3630.125977	4485.657227
3629.368164	4412.388184
3628.609375	4378.708984
3627.851563	4368.117676
3627.092773	4495.968262
3626.333984	4472.178223
3625.575195	4418.740234
3624.816406	4559.699219
3624.057617	4450.265137
3623.298828	4492.368164
3622.540039	4498.234375
3621.780273	4599.580078
3621.020508	4546.172363
3620.261719	4617.854980
3619.501953	4775.077637
3618.742188	4715.086426
3617.982422	4674.853027
3617.221680	4575.424805
3616.461914	4844.372070
3615.701172	4689.047852
3614.941406	4744.187988
3614.180664	4868.341797
3613.419922	4808.401367
3612.659180	4863.495605
3611.898438	4944.856934
3611.137695	4865.222656
3610.375977	4808.605469
3609.615234	4985.173340
3608.853516	4915.420898
3608.091797	5032.821289
3607.330078	4930.258301
3606.568359	5155.922363
3605.806641	5135.407715
3605.044922	4944.293945
3604.282227	5176.407227
3603.520508	5132.939941
3602.757813	5158.352051
3601.995117	5134.574219
3601.233398	4996.064941
3600.470703	5103.429688
3599.707031	5122.275391
3598.944336	5245.968750
3598.181641	5133.739258
3597.417969	5221.358887
3596.655273	5227.072266
3595.891602	5255.706055
3595.127930	5261.412598
3594.364258	5345.681641
3593.600586	5344.825195
3592.835938	5245.794434
3592.072266	5526.342285
3591.307617	5489.471191
3590.543945	5295.607910
3589.779297	5386.330566
3589.014648	5339.689453
3588.250000	5351.911621
3587.485352	5442.581055
3586.720703	5441.708984
3585.955078	5355.875488
3585.190430	5417.094727
3584.424805	5393.359863
3583.659180	5457.819824
3582.893555	5427.554688
3582.127930	5491.988281
3581.362305	5262.583984
3580.596680	5542.454102
3579.830078	5577.465820
3579.064453	5524.363281
3578.297852	5471.277832
3577.531250	5467.139160
3576.764648	5440.171387
3575.998047	5651.262695
3575.231445	5523.200195
3574.464844	5633.152832
3573.698242	5557.283691
3572.930664	5618.312500
3572.163086	5555.503418
3571.396484	5671.895508
3570.628906	5615.612793
3569.861328	5653.794434
3569.092773	5623.582031
3568.325195	5707.331055
3567.557617	5514.357910
3566.789063	5897.529785
3566.020508	5476.795410
3565.252930	5625.586426
3564.484375	5621.432129
3563.715820	5555.479004
3562.946289	5704.185547
3562.177734	5709.774902
3561.409180	5767.379395
3560.639648	5659.187500
3559.870117	5674.530762
3559.101563	5722.364258
3558.332031	5692.206543
3557.562500	5704.288574
3556.791992	5755.341797
3556.022461	5676.481445
3555.252930	5759.991699
3554.482422	5807.764160
3553.711914	5732.179199
3552.942383	5835.111328
3552.171875	5775.770020
3551.401367	5560.721191
3550.629883	5855.013672
3549.859375	5844.346191
3549.088867	5723.428711
3548.317383	5719.269531
3547.545898	5731.319824
3546.774414	5675.301758
3546.002930	5849.387695
3545.231445	5981.296387
3544.459961	5863.711914
3543.688477	5817.424805
3542.916016	5761.437012
3542.144531	5822.037109
3541.372070	5704.552734
3540.599609	5868.727051
3539.827148	5654.177734
3539.054688	5785.947266
3538.282227	5814.139648
3537.509766	5803.502930
3536.736328	5847.855469
3535.962891	5769.304688
3535.190430	5807.181152
3534.416992	5757.757324
3533.643555	5866.735352
3532.870117	5752.680664
3532.095703	5793.766113
3531.322266	5883.300781
3530.548828	5798.370605
3529.774414	5865.266602
3529.000000	5835.263672
3528.225586	5895.674805
3527.451172	5833.394043
3526.676758	5725.945313
3525.902344	5815.389160
3525.127930	5656.350586
3524.352539	5765.133301
3523.577148	5928.716797
3522.802734	5653.632324
3522.027344	5739.790527
3521.251953	5793.680176
3520.476563	5609.008789
3519.700195	5679.017090
3518.924805	5749.002930
3518.148438	5773.857910
3517.373047	5708.502930
3516.596680	5649.610352
3515.820313	5719.555664
3515.043945	5631.700195
3514.267578	5666.211914
3513.490234	5761.871582
3512.713867	5487.383789
3511.937500	5647.399414
3511.160156	5675.450684
3510.382813	5652.023438
3509.605469	5615.737793
3508.828125	5534.442383
3508.050781	5633.230469
3507.273438	5651.616699
3506.495117	5898.210938
3505.716797	5643.377930
3504.939453	5581.421875
3504.161133	5580.527832
3503.382813	5621.392578
3502.604492	5745.748535
3501.826172	5597.112793
3501.046875	5609.058594
3500.268555	5691.624512
3499.489258	5607.261230
3498.710938	5670.545898
3497.931641	5621.507813
3497.152344	5671.936523
3496.373047	5619.706543
3495.592773	5660.498047
3494.813477	5454.370605
3494.034180	5501.587402
3493.253906	5526.350098
3492.473633	5477.389160
3491.693359	5620.714844
3490.913086	5411.554199
3490.132813	5407.483398
3489.352539	5390.602051
3488.572266	5530.646484
3487.791016	5516.952637
3487.009766	5532.075684
3486.229492	5326.330566
3485.448242	5466.294922
3484.666992	5475.018555
3483.885742	5563.724121
3483.103516	5441.275391
3482.322266	5299.675781
3481.540039	5426.740234
3480.758789	5473.830566
3479.976563	5546.480469
3479.194336	5350.616699
3478.412109	5621.401855
3477.629883	5284.996582
3476.846680	5405.550781
3476.064453	5235.389160
3475.281250	5301.618652
3474.499023	5361.440430
3473.715820	5351.003418
3472.932617	5267.148438
3472.149414	5282.262695
3471.366211	5268.651367
3470.582031	5382.671387
3469.798828	5286.104004
3469.014648	5345.860352
3468.231445	5345.003418
3467.447266	5366.467285
3466.663086	5196.637207
3465.878906	5205.367188
3465.093750	5166.287598
3464.309570	5066.675781
3463.524414	5295.261230
3462.740234	5049.124023
3461.955078	5213.937500
3461.169922	5139.857422
3460.384766	5240.922852
3459.599609	5224.165527
3458.814453	5127.837891
3458.028320	5092.008301
3457.243164	5167.560547
3456.457031	5179.458008
3455.670898	5134.094238
3454.885742	5060.121094
3454.098633	5186.508301
3453.312500	5080.755371
3452.526367	5159.414551
3451.740234	4961.524902
3450.953125	5081.490723
3450.166016	4972.644531
3449.379883	4994.085938
3448.592773	5037.754883
3447.804688	4995.661133
3447.017578	4905.949707
3446.230469	4987.709961
3445.442383	4866.285156
3444.655273	5084.500488
3443.867188	4902.805664
3443.079102	4940.093750
3442.291016	4888.544922
3441.502930	4941.682129
3440.714844	4890.149414
3439.926758	4873.511719
3439.137695	5015.393555
3438.348633	4865.609863
3437.560547	4915.538574
3436.771484	4924.256836
3435.982422	4885.448730
3435.193359	4830.813965
3434.403320	4830.039551
3433.614258	4784.931152
3432.824219	4856.987305
3432.035156	4887.866211
3431.245117	4906.073730
3430.455078	4734.393555
3429.665039	4860.202637
3428.875000	4786.658691
3428.084961	4754.259766
3427.293945	4892.655273
3426.503906	4803.330078
3425.712891	4805.722168
3424.921875	4836.563477
3424.130859	4655.631348
3423.339844	4819.212402
3422.548828	4663.617676
3421.756836	4732.371094
3420.965820	4687.391602
3420.173828	4582.422852
3419.382813	4562.742676
3418.590820	4732.494629
3417.798828	4586.532715
3417.006836	4592.109375
3416.213867	4581.906738
3415.421875	4622.188477
3414.628906	4640.374512
3413.836914	4664.863281
3413.043945	4607.351563
3412.250977	4445.807129
3411.458008	4577.501465
3410.665039	4504.270996
3409.872070	4651.670898
3409.078125	4531.186035
3408.285156	4461.147949
3407.491211	4507.683105
