#Wave		#Intensity
4002.039063	2097.543945
4001.340820	1961.525757
4000.642578	1989.841309
3999.943359	2039.617310
3999.245117	1967.735474
3998.545898	1974.573486
3997.846680	2017.174805
3997.147461	2049.034424
3996.448242	2066.582031
3995.749023	1987.603760
3995.049805	2083.789307
3994.350586	2051.291260
3993.650391	1968.780151
3992.951172	1972.036377
3992.250977	1946.715820
3991.550781	2064.258545
3990.850586	2074.639160
3990.150391	1988.620239
3989.450195	2123.947754
3988.750000	2055.793945
3988.048828	2098.285645
3987.348633	2015.885864
3986.647461	1951.349365
3985.947266	2036.638916
3985.246094	2064.841309
3984.544922	1982.499756
3983.843750	1953.660645
3983.141602	1992.556274
3982.440430	2052.822998
3981.739258	2130.886963
3981.037109	2130.544678
3980.334961	2140.888916
3979.633789	2126.298340
3978.931641	1962.147705
3978.229492	1986.755981
3977.527344	2061.195068
3976.824219	2057.304688
3976.122070	2142.384766
3975.419922	1989.037720
3974.716797	2031.409790
3974.013672	1967.056274
3973.311523	1991.635742
3972.608398	2119.328857
3971.905273	2012.328003
3971.201172	1908.916138
3970.498047	2082.765625
3969.794922	2014.911987
3969.090820	2007.482300
3968.387695	2081.762207
3967.683594	1946.454590
3966.979492	1992.309570
3966.275391	2031.048218
3965.571289	2034.272217
3964.867188	2076.541016
3964.163086	2154.287109
3963.458008	2043.937622
3962.753906	1940.719238
3962.048828	1982.975830
3961.343750	2089.061279
3960.638672	1914.960693
3959.933594	2035.205322
3959.228516	1939.161255
3958.523438	1945.938843
3957.817383	2087.384033
3957.112305	2009.094604
3956.406250	2040.657104
3955.701172	2011.991455
3954.995117	1983.335083
3954.289063	1919.276733
3953.583008	1964.995361
3952.876953	1961.139893
3952.169922	2074.085449
3951.463867	1935.738281
3950.757813	2016.807251
3950.050781	1821.910522
3949.343750	1987.862671
3948.636719	1941.568237
3947.929688	1934.184448
3947.222656	1965.692627
3946.515625	1986.586060
3945.808594	1869.635742
3945.100586	2007.150391
3944.393555	1914.966309
3943.685547	2034.766479
3942.977539	1889.627197
3942.269531	1885.792358
3941.561523	2005.539429
3940.853516	1984.035645
3940.145508	1948.419556
3939.436523	1972.810913
3938.728516	1905.450562
3938.019531	2074.490723
3937.311523	2038.882935
3936.602539	1964.490479
3935.893555	1904.227173
3935.184570	1963.859619
3934.474609	1928.292236
3933.765625	1987.901611
3933.056641	1948.817627
3932.346680	1895.651978
3931.636719	1951.714844
3930.927734	1990.147705
3930.217773	1929.957275
3929.507813	1866.264893
3928.797852	1894.130737
3928.086914	2105.034180
3927.376953	1932.237793
3926.666992	1900.256714
3925.956055	1935.135864
3925.245117	2040.361206
3924.534180	2008.377930
3923.823242	1902.553467
3923.112305	1954.990601
3922.401367	1982.801636
3921.690430	2007.088623
3920.979492	1957.563843
3920.267578	1936.166138
3919.555664	1999.095581
3918.844727	1939.057373
3918.132813	1910.648315
3917.420898	1910.341675
3916.708984	1976.745850
3915.996094	1920.260010
3915.284180	1898.891968
3914.572266	1975.794067
3913.859375	2007.056519
3913.146484	1912.010864
3912.433594	1964.319702
3911.720703	1848.268433
3911.007813	1918.103516
3910.294922	1840.663208
3909.582031	1868.411377
3908.869141	1829.557617
3908.155273	1902.855103
3907.441406	1874.519531
3906.728516	1944.282959
3906.014648	1859.907227
3905.300781	1884.123413
3904.586914	2013.377441
3903.872070	1981.545654
3903.158203	1935.722412
3902.444336	1893.413696
3901.729492	1917.604736
3901.014648	1892.806030
3900.300781	1976.458008
3899.585938	1930.672119
3898.871094	1821.954224
3898.155273	1905.577148
3897.440430	1992.669189
3896.725586	1883.993530
3896.009766	1859.227661
3895.294922	1796.033203
3894.579102	1935.491699
3893.863281	1886.277588
3893.147461	1854.541992
3892.431641	1892.656250
3891.715820	1993.603882
3890.999023	1815.249878
3890.283203	1933.629028
3889.566406	1832.116089
3888.850586	1842.289673
3888.133789	1894.323486
3887.416992	1988.197266
3886.700195	1918.128174
3885.983398	1813.212036
3885.265625	1900.080688
3884.548828	1885.832520
3883.831055	1826.280396
3883.114258	1791.140381
3882.396484	1870.988403
3881.678711	1738.311768
3880.960938	1800.727417
3880.243164	1783.026123
3879.525391	1974.245361
3878.806641	1904.301514
3878.088867	1827.418457
3877.370117	1941.973145
3876.652344	2018.214478
3875.933594	1955.266602
3875.214844	1878.424438
3874.496094	1860.733032
3873.777344	1888.254150
3873.057617	1943.581421
3872.338867	1905.030029
3871.619141	1869.966675
3870.900391	1831.439209
3870.180664	1772.076172
3869.460938	1858.644531
3868.741211	1934.764282
3868.021484	1906.670044
3867.301758	1833.443115
3866.581055	1871.339600
3865.861328	1874.510742
3865.140625	1856.856201
3864.420898	1960.664429
3863.700195	1842.381958
3862.979492	1814.333740
3862.258789	1866.070679
3861.538086	1851.899414
3860.816406	1837.732666
3860.095703	1809.703003
3859.374023	1899.536743
3858.653320	1798.725220
3857.931641	1846.949463
3857.209961	1839.723877
3856.488281	1849.821045
3855.766602	1891.086670
3855.044922	1831.912842
3854.322266	1724.284058
3853.600586	1831.325195
3852.877930	1779.111816
3852.156250	1844.580811
3851.433594	1858.125732
3850.710938	1823.231323
3849.988281	1822.938843
3849.264648	1701.597900
3848.541992	1929.551392
3847.819336	1877.380615
3847.095703	1856.338257
3846.372070	1932.079468
3845.649414	1935.225342
3844.925781	1858.900513
3844.202148	1941.514038
3843.478516	1844.487915
3842.753906	1816.563721
3842.030273	1795.554443
3841.305664	1867.767578
3840.582031	1822.593628
3839.857422	1756.726074
3839.132813	1859.967651
3838.408203	1845.868408
3837.683594	1911.116089
3836.958984	1803.887085
3836.234375	1851.877563
3835.508789	1792.964478
3834.783203	1778.887085
3834.058594	1754.473511
3833.333008	1861.029053
3832.607422	1867.622192
3831.881836	1894.884644
3831.156250	1901.470215
3830.430664	1821.950073
3829.704102	1849.206543
3828.978516	1731.846802
3828.251953	1900.250854
3827.525391	1841.433228
3826.798828	1813.606934
3826.072266	1768.585327
3825.345703	1964.397461
3824.619141	1895.287964
3823.892578	1819.322266
3823.165039	1808.714722
3822.437500	1859.995728
3821.710938	1852.822388
3820.983398	1825.029541
3820.255859	1872.846802
3819.528320	1875.982300
3818.800781	1872.246216
3818.072266	1768.903076
3817.344727	1682.764160
3816.616211	1898.815063
3815.888672	1850.447021
3815.160156	1829.554932
3814.431641	1791.509521
3813.703125	1894.166138
3812.974609	1694.869629
3812.245117	1914.140869
3811.516602	1821.229126
3810.788086	1868.946777
3810.058594	1734.927368
3809.329102	1847.778564
3808.599609	1826.916626
3807.870117	1836.904907
3807.140625	1898.287598
3806.411133	1832.890015
3805.681641	1815.468994
3804.951172	1917.923950
3804.221680	1801.189697
3803.491211	1859.104980
3802.760742	1845.114014
3802.030273	1803.746216
3801.299805	1868.477295
3800.569336	1803.167847
3799.837891	1754.984497
3799.107422	1758.123657
3798.375977	1877.539185
3797.645508	1877.238159
3796.914063	1839.330078
3796.182617	1770.669556
3795.451172	1903.677246
3794.719727	1903.372070
3793.988281	1783.484619
3793.255859	1960.835449
3792.524414	1854.639282
3791.791992	1854.341919
3791.059570	1802.828003
3790.327148	1843.505737
3789.594727	1850.036987
3788.862305	1815.612305
3788.129883	1726.602539
3787.397461	1801.383423
3786.664063	1804.505859
3785.931641	1892.892578
3785.198242	1834.617920
3784.464844	1803.638184
3783.731445	1772.668213
3782.998047	1881.453857
3782.264648	1778.915771
3781.531250	1863.814087
3780.796875	1693.175659
3780.063477	1880.247803
3779.329102	1876.540649
3778.594727	1835.378052
3777.860352	1818.060791
3777.125977	1800.749023
3776.391602	1885.548340
3775.657227	1888.649048
3774.921875	1782.871094
3774.187500	1864.230469
3773.452148	1816.312988
3772.716797	1812.621094
3771.981445	1842.932739
3771.246094	1914.031006
3770.510742	1842.342041
3769.775391	1872.634155
3769.040039	1953.887573
3768.303711	1780.300903
3767.568359	1844.558105
3766.832031	1830.676636
3766.095703	1793.028442
3765.359375	1816.508545
3764.623047	1809.427734
3763.886719	1883.811401
3763.149414	1778.304443
3762.413086	1835.703247
3761.675781	1893.083618
3760.939453	1889.388062
3760.202148	1848.386841
3759.464844	1963.384277
3758.727539	1844.403931
3757.990234	1759.360718
3757.251953	1820.087280
3756.514648	1897.738281
3755.776367	1822.892090
3755.039063	1876.803711
3754.300781	1890.051636
3753.562500	1750.896240
3752.824219	1808.179321
3752.085938	1875.600830
3751.346680	1831.294922
3750.608398	1820.848022
3749.870117	1827.324097
3749.130859	1894.699097
3748.391602	1907.926758
3747.652344	1839.974854
3746.913086	1849.825317
3746.173828	1907.009644
3745.434570	1937.130127
3744.695313	1916.538818
3743.955078	1879.056152
3743.214844	1885.513062
3742.475586	1858.182861
3741.735352	1840.995117
3740.995117	1891.361572
3740.254883	1870.797119
3739.514648	1802.970337
3738.773438	1833.063721
3738.033203	1954.279541
3737.291992	1943.842163
3736.551758	1886.169556
3735.810547	1902.735474
3735.069336	1892.311279
3734.328125	1902.125732
3733.586914	1857.984619
3732.844727	1921.744995
3732.103516	1897.840454
3731.361328	1833.498657
3730.620117	2032.026733
3729.877930	1896.928223
3729.135742	1899.993042
3728.393555	1896.320313
3727.651367	1939.796509
3726.908203	1905.814087
3726.166016	1935.808228
3725.422852	1918.667725
3724.680664	1921.725708
3723.937500	1911.322754
3723.194336	2005.221558
3722.451172	1890.526733
3721.708008	1950.764771
3720.964844	1997.531982
3720.220703	1936.690430
3719.477539	1896.038818
3718.733398	1912.541138
3717.989258	1939.120239
3717.246094	1945.529785
3716.501953	1988.893066
3715.756836	2008.728882
3715.012695	1974.821533
3714.268555	2068.529053
3713.523438	2078.270020
3712.779297	2061.152344
3712.034180	2030.614746
3711.289063	2023.577637
3710.543945	2006.476807
3709.798828	2022.929199
3709.053711	2046.084717
3708.308594	2059.171631
3707.562500	2102.432861
3706.817383	1988.106689
3706.071289	2138.632080
3705.325195	2000.875732
3704.579102	2067.575439
3703.833008	2067.244141
3703.086914	2073.612793
3702.339844	2086.678223
3701.593750	2019.366455
3700.846680	2129.537842
3700.100586	2028.762817
3699.353516	2162.328125
3698.606445	2001.338989
3697.859375	2181.712158
3697.112305	2131.177979
3696.365234	2140.871826
3695.617188	2160.596191
3694.870117	2033.176514
3694.122070	2116.438477
3693.374023	2203.016357
3692.625977	2202.663574
3691.877930	2148.840088
3691.129883	2125.106445
3690.381836	2361.964600
3689.632813	2258.037109
3688.884766	2247.656006
3688.135742	2240.617432
3687.386719	2243.597168
3686.638672	2263.266602
3685.889648	2212.839600
3685.139648	2342.631348
3684.390625	2412.323486
3683.641602	2311.856689
3682.891602	2294.808838
3682.142578	2401.159424
3681.392578	2244.057373
3680.642578	2403.723877
3679.892578	2433.338867
3679.142578	2426.283203
3678.392578	2335.923340
3677.641602	2562.107178
3676.891602	2471.754150
3676.140625	2471.358154
3675.389648	2434.330811
3674.639648	2590.432129
3673.888672	2473.499512
3673.136719	2393.218262
3672.385742	2522.627197
3671.634766	2455.673584
3670.882813	2568.395996
3670.131836	2601.248535
3669.379883	2614.135254
3668.627930	2670.247070
3667.875977	2749.614746
3667.124023	2672.715820
3666.372070	2695.553955
3665.620117	2761.586182
3664.867188	2787.725098
3664.115234	2680.969971
3663.362305	2826.691406
3662.609375	2793.027588
3661.856445	2829.106201
3661.103516	2838.613037
3660.350586	2990.854492
3659.596680	2907.401367
3658.843750	3046.309326
3658.089844	3052.457031
3657.336914	3025.429199
3656.583008	3160.934326
3655.829102	3054.306396
3655.075195	3159.921631
3654.321289	3073.219238
3653.566406	3036.265137
3652.812500	3221.372314
3652.057617	3217.542480
3651.303711	3263.410645
3650.548828	3315.888916
3649.793945	3209.372314
3649.039063	3420.794922
3648.284180	3337.472412
3647.528320	3485.908203
3646.773438	3316.543457
3646.017578	3455.006836
3645.262695	3464.379883
3644.506836	3486.983154
3643.750977	3509.579102
3642.995117	3565.240479
3642.239258	3577.896240
3641.482422	3620.303955
3640.726563	3656.086426
3639.969727	3761.265625
3639.213867	3806.927734
3638.457031	3925.265381
3637.700195	3749.547363
3636.943359	3890.977295
3636.186523	3890.354004
3635.429688	3893.032715
3634.671875	3918.820557
3633.915039	3937.998291
3633.157227	4023.177734
3632.399414	4085.230469
3631.641602	3985.595947
3630.883789	4186.184570
3630.125977	4119.548340
3629.368164	4151.866211
3628.609375	4213.848145
3627.851563	4232.953125
3627.092773	4291.605957
3626.333984	4231.597168
3625.575195	4230.918945
3624.816406	4325.784180
3624.057617	4371.208008
3623.298828	4472.606934
3622.540039	4340.170410
3621.780273	4395.447266
3621.020508	4374.991211
3620.261719	4637.603516
3619.501953	4554.588379
3618.742188	4540.697266
3617.982422	4461.013672
3617.221680	4506.349609
3616.461914	4660.200195
3615.701172	4544.364746
3614.941406	4619.254395
3614.180664	4690.833008
3613.419922	4749.241211
3612.659180	4649.895996
3611.898438	4793.718750
3611.137695	4806.090820
3610.375977	4736.345215
3609.615234	4768.426758
3608.853516	4761.095703
3608.091797	4796.445801
3607.330078	4825.219727
3606.568359	4771.935547
3605.806641	5050.091309
3605.044922	4921.327637
3604.282227	4848.371094
3603.520508	5008.306641
3602.757813	5089.486816
3601.995117	4937.847656
3601.233398	5081.299805
3600.470703	5119.818359
3599.707031	4873.207520
3598.944336	5157.498535
3598.181641	5015.797363
3597.417969	5051.025879
3596.655273	5171.395508
3595.891602	5091.977051
3595.127930	5189.383301
3594.364258	5191.825195
3593.600586	5046.980957
3592.835938	5121.439941
3592.072266	5091.171875
3591.307617	5149.241699
3590.543945	5181.125977
3589.779297	5124.699707
3589.014648	5019.242676
3588.250000	5263.639160
3587.485352	5285.677734
3586.720703	5245.611328
3585.955078	5146.737793
3585.190430	5312.542969
3584.424805	4968.686035
3583.659180	5206.322754
3582.893555	5342.646973
3582.127930	5237.306152
3581.362305	5318.083008
3580.596680	5261.741211
3579.830078	5345.751465
3579.064453	5455.838867
3578.297852	5301.625488
3577.531250	5369.278809
3576.764648	5423.863770
3575.998047	5608.870117
3575.231445	5249.322266
3574.464844	5558.174316
3573.698242	5413.870117
3572.930664	5328.271973
3572.163086	5395.843750
3571.396484	5509.003906
3570.628906	5573.267578
3569.861328	5363.939941
3569.092773	5610.557129
3568.325195	5502.218750
3567.557617	5566.441406
3566.789063	5367.012695
3566.020508	5499.574707
3565.252930	5511.708008
3564.484375	5556.369141
3563.715820	5483.921387
3562.946289	5687.924805
3562.177734	5456.151367
3561.409180	5325.235352
3560.639648	5490.159668
3559.870117	5635.530762
3559.101563	5537.143066
3558.332031	5471.276367
3557.562500	5528.872070
3556.791992	5615.680664
3556.022461	5666.739258
3555.252930	5516.474121
3554.482422	5525.329590
3553.711914	5563.394531
3552.942383	5559.258301
3552.171875	5671.936035
3551.401367	5596.408691
3550.629883	5644.168457
3549.859375	5562.183105
3549.088867	5538.592773
3548.317383	5537.705078
3547.545898	5510.884277
3546.774414	5607.236816
3546.002930	5690.595703
3545.231445	5683.203613
3544.459961	5585.104492
3543.688477	5606.883301
3542.916016	5648.086914
3542.144531	5585.658691
3541.372070	5581.526367
3540.599609	5541.787598
3539.827148	5566.791992
3539.054688	5582.080078
3538.282227	5713.839844
3537.509766	5667.635254
3536.736328	5712.009277
3535.962891	5591.438965
3535.190430	5616.410645
3534.416992	5560.551758
3533.643555	5617.843262
3532.870117	5678.348145
3532.095703	5616.043457
3531.322266	5615.143555
3530.548828	5659.467773
3529.774414	5426.017578
3529.000000	5505.879395
3528.225586	5534.056152
3527.451172	5662.298340
3526.676758	5438.679688
3525.902344	5499.124512
3525.127930	5578.910156
3524.352539	5613.504395
3523.577148	5528.738281
3522.802734	5718.134277
3522.027344	5452.800781
3521.251953	5535.753418
3520.476563	5554.208008
3519.700195	5585.548828
3518.924805	5397.746582
3518.148438	5532.206543
3517.373047	5508.769531
3516.596680	5437.025391
3515.820313	5535.988770
3515.043945	5683.219727
3514.267578	5537.434570
3513.490234	5462.511719
3512.713867	5596.809570
3511.937500	5525.119629
3511.160156	5540.320801
3510.382813	5385.023926
3509.605469	5480.651367
3508.828125	5528.010742
3508.050781	5482.110840
3507.273438	5500.520996
3506.495117	5624.997070
3505.716797	5450.552246
3504.939453	5591.062012
3504.161133	5407.040039
3503.382813	5348.353516
3502.604492	5453.482910
3501.826172	5391.596191
3501.046875	5381.100586
3500.268555	5434.811035
3499.489258	5427.520996
3498.710938	5340.004395
3497.931641	5445.033691
3497.152344	5550.028809
3496.373047	5270.078613
3495.592773	5294.890625
3494.813477	5345.347168
3494.034180	5386.169434
3493.253906	5343.634277
3492.473633	5326.752930
3491.693359	5415.625977
3490.913086	5408.350098
3490.132813	5285.750977
3489.352539	5256.077148
3488.572266	5271.247559
3487.791016	5318.432129
3487.009766	5320.781250
3486.229492	5163.083496
3485.448242	5299.873535
3484.666992	5295.824707
3483.885742	5227.789063
3483.103516	5198.161133
3482.322266	5242.105469
3481.540039	5145.330078
3480.758789	5288.385254
3479.976563	5217.208008
3479.194336	5334.635254
3478.412109	5106.878906
3477.629883	5361.683105
3476.846680	5370.408203
3476.064453	5193.863770
3475.281250	5202.612305
3474.499023	5137.914063
3473.715820	5002.996582
3472.932617	5097.960938
3472.149414	5068.418945
3471.366211	5227.166016
3470.582031	5283.760742
3469.798828	5219.110352
3469.014648	4994.998535
3468.231445	5118.574219
3467.447266	5127.320313
3466.663086	5046.795410
3465.878906	5135.239746
3465.093750	5006.932617
3464.309570	5044.369629
3463.524414	4986.211914
3462.740234	5100.093262
3461.955078	4825.360840
3461.169922	4977.445801
3460.384766	5043.512695
3459.599609	4979.034180
3458.814453	4940.040039
3458.028320	4872.415527
3457.243164	4903.454590
3456.457031	4889.942871
3455.670898	4990.950684
3454.885742	4961.526367
3454.098633	4858.972656
3453.312500	5004.448730
3452.526367	4895.562500
3451.740234	4805.782227
3450.953125	4948.018066
3450.166016	4836.016113
3449.379883	4955.962891
3448.592773	4780.467285
3447.804688	4779.701172
3447.017578	4842.442383
3446.230469	4755.945313
3445.442383	4831.367188
3444.655273	4722.682129
3443.867188	4715.578613
3443.079102	4930.575195
3442.291016	5009.092773
3441.502930	4760.888672
3440.714844	4807.695313
3439.926758	4619.848145
3439.137695	4739.578613
3438.348633	4681.762695
3437.560547	4741.228516
3436.771484	4597.874512
3435.982422	4692.185059
3435.193359	4761.123535
3434.403320	4735.022461
3433.614258	4591.760254
3432.824219	4565.694824
3432.035156	4580.791504
3431.245117	4526.248535
3430.455078	4623.628906
3429.665039	4591.246094
3428.875000	4713.894043
3428.084961	4643.548340
3427.293945	4623.828125
3426.503906	4648.384277
3425.712891	4669.770508
3424.921875	4586.832031
3424.130859	4510.241699
3423.339844	4531.639648
3422.548828	4527.753418
3421.756836	4369.071289
3420.965820	4396.798828
3420.173828	4645.584961
3419.382813	4524.851074
3418.590820	4432.569824
3417.798828	4551.810059
3417.006836	4519.519531
3416.213867	4427.283203
3415.421875	4417.108398
3414.628906	4463.718750
3413.836914	4343.148926
3413.043945	4471.748535
3412.250977	4423.735840
3411.458008	4259.094238
3410.665039	4416.013672
3409.872070	4456.275879
3409.078125	4417.749023
3408.285156	4410.739746
3407.491211	4441.532715
