#Wave		#Intensity
4002.039063	2541.392822
4001.340820	2670.252197
4000.642578	2587.509521
3999.943359	2551.310791
3999.245117	2597.410889
3998.545898	2518.296631
3997.846680	2682.413330
3997.147461	2521.063232
3996.448242	2624.344727
3995.749023	2602.474121
3995.049805	2637.798340
3994.350586	2662.390137
3993.650391	2604.792725
3992.951172	2672.252197
3992.250977	2728.974121
3991.550781	2674.964844
3990.850586	2563.839844
3990.150391	2663.394531
3989.450195	2691.523682
3988.750000	2487.653320
3988.048828	2497.959229
3987.348633	2601.028076
3986.647461	2547.099609
3985.947266	2507.455566
3985.246094	2425.029541
3984.544922	2560.134521
3983.843750	2645.284912
3983.141602	2584.263428
3982.440430	2605.231934
3981.739258	2597.686523
3981.037109	2672.087646
3980.334961	2571.916504
3979.633789	2489.585449
3978.931641	2635.189209
3978.229492	2552.874512
3977.527344	2523.985107
3976.824219	2555.613770
3976.122070	2640.613770
3975.419922	2558.350830
3974.716797	2525.921143
3974.013672	2461.488281
3973.311523	2514.440186
3972.608398	2510.480225
3971.905273	2545.630615
3971.201172	2555.885986
3970.498047	2466.620117
3969.794922	2508.867676
3969.090820	2469.380859
3968.387695	2547.139160
3967.683594	2468.587646
3966.979492	2525.012695
3966.275391	2599.173584
3965.571289	2449.647217
3964.867188	2577.040771
3964.163086	2562.430664
3963.458008	2462.660889
3962.753906	2469.361328
3962.048828	2500.890869
3961.343750	2592.705811
3960.638672	2574.558350
3959.933594	2581.236084
3959.228516	2527.645264
3958.523438	2548.506348
3957.817383	2579.992676
3957.112305	2583.121582
3956.406250	2490.593750
3955.701172	2550.411865
3954.995117	2503.960449
3954.289063	2521.263916
3953.583008	2496.075195
3952.876953	2559.393799
3952.169922	2484.655273
3951.463867	2420.557373
3950.757813	2558.160889
3950.050781	2561.287842
3949.343750	2412.317383
3948.636719	2518.026611
3947.929688	2545.910156
3947.222656	2439.438721
3946.515625	2654.672852
3945.808594	2537.615234
3945.100586	2565.477539
3944.393555	2526.200928
3943.685547	2465.741455
3942.977539	2550.113770
3942.269531	2447.292480
3941.561523	2436.306885
3940.853516	2322.945557
3940.145508	2562.595215
3939.436523	2562.183838
3938.728516	2385.341797
3938.019531	2522.552734
3937.311523	2550.367432
3936.602539	2525.269531
3935.893555	2496.653320
3935.184570	2372.850098
3934.474609	2506.427246
3933.765625	2424.958008
3933.056641	2466.857666
3932.346680	2498.173340
3931.636719	2430.836182
3930.927734	2416.356445
3930.217773	2511.057617
3929.507813	2327.549316
3928.797852	2475.044434
3928.086914	2502.808105
3927.376953	2428.495605
3926.666992	2424.586670
3925.956055	2381.976318
3925.245117	2451.951416
3924.534180	2448.040283
3923.823242	2423.030273
3923.112305	2338.253174
3922.401367	2373.033936
3921.690430	2337.502686
3920.979492	2460.134033
3920.267578	2407.030518
3919.555664	2526.097900
3918.844727	2346.540527
3918.132813	2405.871582
3917.420898	2496.788330
3916.708984	2387.543701
3915.996094	2478.434326
3915.284180	2499.096191
3914.572266	2291.640381
3913.859375	2508.820557
3913.146484	2483.860107
3912.433594	2381.737549
3911.720703	2437.469727
3911.007813	2363.440186
3910.294922	2461.229492
3909.582031	2450.318115
3908.869141	2414.875977
3908.155273	2382.949219
3907.441406	2372.055420
3906.728516	2445.242188
3906.014648	2322.257080
3905.300781	2384.921875
3904.586914	2360.028564
3903.872070	2405.162354
3903.158203	2443.280762
3902.444336	2372.891846
3901.729492	2438.997314
3901.014648	2330.145752
3900.300781	2476.694336
3899.585938	2388.856934
3898.871094	2343.012207
3898.155273	2423.054932
3897.440430	2478.600830
3896.725586	2415.286621
3896.009766	2439.362549
3895.294922	2306.190430
3894.579102	2449.060791
3893.863281	2385.791992
3893.147461	2490.185547
3892.431641	2451.374023
3891.715820	2360.203613
3890.999023	2391.242676
3890.283203	2261.717773
3889.566406	2425.372803
3888.850586	2372.645752
3888.133789	2501.344238
3887.416992	2330.027588
3886.700195	2399.404053
3885.983398	2374.610352
3885.265625	2370.742920
3884.548828	2328.532715
3883.831055	2415.290771
3883.114258	2432.326660
3882.396484	2379.674316
3881.678711	2386.259521
3880.960938	2392.842773
3880.243164	2423.801270
3879.525391	2402.520752
3878.806641	2457.836914
3878.088867	2447.000244
3877.370117	2390.923828
3876.652344	2387.060547
3875.933594	2355.365479
3875.214844	2452.387451
3874.496094	2347.653809
3873.777344	2535.059326
3873.057617	2374.715820
3872.338867	2353.476807
3871.619141	2339.196045
3870.900391	2269.316650
3870.180664	2494.805420
3869.460938	2431.871338
3868.741211	2341.168945
3868.021484	2441.510010
3867.301758	2510.566895
3866.581055	2284.492432
3865.861328	2436.864014
3865.140625	2339.291748
3864.420898	2422.201416
3863.700195	2428.752197
3862.979492	2334.697021
3862.258789	2292.700195
3861.538086	2330.480225
3860.816406	2371.715332
3860.095703	2364.401123
3859.374023	2419.482910
3858.653320	2474.546875
3857.931641	2394.450439
3857.209961	2359.419922
3856.488281	2307.080322
3855.766602	2421.006592
3855.044922	2354.821777
3854.322266	2299.045410
3853.600586	2478.693359
3852.877930	2370.995361
3852.156250	2387.918945
3851.433594	2294.110596
3850.710938	2342.177490
3849.988281	2272.620117
3849.264648	2296.465332
3848.541992	2444.790039
3847.819336	2309.558594
3847.095703	2329.929199
3846.372070	2319.186768
3845.649414	2453.589355
3844.925781	2397.912598
3844.202148	2183.339600
3843.478516	2341.877930
3842.753906	2465.829834
3842.030273	2354.938721
3841.305664	2382.180420
3840.582031	2402.509766
3839.857422	2319.292480
3839.132813	2381.034668
3838.408203	2335.799805
3837.683594	2380.270996
3836.958984	2338.499756
3836.234375	2224.322266
3835.508789	2372.229980
3834.783203	2427.008789
3834.058594	2378.363037
3833.333008	2350.410645
3832.607422	2350.033936
3831.881836	2432.342773
3831.156250	2332.056641
3830.430664	2342.015137
3829.704102	2276.211426
3828.978516	2265.517334
3828.251953	2413.180908
3827.525391	2343.955322
3826.798828	2274.751709
3826.072266	2274.386963
3825.345703	2291.223633
3824.619141	2256.458984
3823.892578	2393.664063
3823.165039	2345.139648
3822.437500	2282.878174
3821.710938	2344.387451
3820.983398	2354.322510
3820.255859	2419.237061
3819.528320	2336.388184
3818.800781	2439.072998
3818.072266	2373.421387
3817.344727	2245.975098
3816.616211	2324.589111
3815.888672	2231.522461
3815.160156	2220.866943
3814.431641	2436.727539
3813.703125	2402.022217
3812.974609	2353.604248
3812.245117	2195.430420
3811.516602	2277.393799
3810.788086	2208.443604
3810.058594	2232.090332
3809.329102	2444.278564
3808.599609	2337.630615
3807.870117	2237.871094
3807.140625	2234.085693
3806.411133	2237.153564
3805.681641	2360.109863
3804.951172	2226.161621
3804.221680	2311.412598
3803.491211	2198.057861
3802.760742	2327.787598
3802.030273	2337.682373
3801.299805	2460.503906
3800.569336	2350.619141
3799.837891	2435.767822
3799.107422	2363.547363
3798.375977	2311.869629
3797.645508	2321.757080
3796.914063	2246.170654
3796.182617	2303.921387
3795.451172	2224.944092
3794.719727	2310.017090
3793.988281	2360.896484
3793.255859	2199.961670
3792.524414	2261.088867
3791.791992	2253.896240
3791.059570	2308.166016
3790.327148	2270.243164
3789.594727	2344.973145
3788.862305	2385.550781
3788.129883	2344.221191
3787.397461	2384.786133
3786.664063	2336.647461
3785.931641	2360.147217
3785.198242	2352.948730
3784.464844	2332.114258
3783.731445	2243.107178
3782.998047	2263.198242
3782.264648	2303.729980
3781.531250	2279.509277
3780.796875	2306.398193
3780.063477	2346.903564
3779.329102	2370.367188
3778.594727	2346.151123
3777.860352	2362.798096
3777.125977	2423.692627
3776.391602	2222.496582
3775.657227	2375.273926
3774.921875	2347.673828
3774.187500	2258.848633
3773.452148	2394.540039
3772.716797	2305.735596
3771.981445	2410.773682
3771.246094	2315.195557
3770.510742	2352.215332
3769.775391	2236.285400
3769.040039	2358.257324
3768.303711	2330.699219
3767.568359	2228.416260
3766.832031	2343.537842
3766.095703	2356.745850
3765.359375	2339.391357
3764.623047	2339.016357
3763.886719	2430.286377
3763.149414	2409.534668
3762.413086	2337.891846
3761.675781	2330.731934
3760.939453	2279.477295
3760.202148	2407.990234
3759.464844	2414.386230
3758.727539	2352.971191
3757.990234	2393.272949
3757.251953	2331.880859
3756.514648	2301.007813
3755.776367	2365.016113
3755.039063	2320.596680
3754.300781	2384.581299
3753.562500	2357.105957
3752.824219	2387.203125
3752.085938	2393.591553
3751.346680	2230.727051
3750.608398	2409.746826
3749.870117	2389.057129
3749.130859	2310.856201
3748.391602	2334.165771
3747.652344	2293.204102
3746.913086	2417.961670
3746.173828	2339.806152
3745.434570	2207.584717
3744.695313	2399.898682
3743.955078	2416.412109
3743.214844	2409.266846
3742.475586	2327.796387
3741.735352	2276.753662
3740.995117	2418.240967
3740.254883	2360.446289
3739.514648	2231.766602
3738.773438	2278.670410
3738.033203	2426.816895
3737.291992	2436.552246
3736.551758	2382.174805
3735.810547	2408.782227
3735.069336	2300.456787
3734.328125	2293.343018
3733.586914	2397.508301
3732.844727	2373.523682
3732.103516	2373.143311
3731.361328	2409.837402
3730.620117	2392.602051
3729.877930	2355.156006
3729.135742	2348.041016
3728.393555	2512.708496
3727.651367	2364.126953
3726.908203	2363.748291
3726.166016	2450.901611
3725.422852	2389.919434
3724.680664	2433.288574
3723.937500	2365.598389
3723.194336	2378.677246
3722.451172	2512.853027
3721.708008	2408.185547
3720.964844	2448.153809
3720.220703	2447.761475
3719.477539	2417.113281
3718.733398	2403.281006
3717.989258	2318.878662
3717.246094	2412.591309
3716.501953	2539.870117
3715.756836	2364.791016
3715.012695	2441.658691
3714.268555	2478.205322
3713.523438	2340.152344
3712.779297	2521.051270
3712.034180	2386.391846
3711.289063	2432.991211
3710.543945	2405.759033
3709.798828	2462.404541
3709.053711	2465.364258
3708.308594	2562.226563
3707.562500	2410.923828
3706.817383	2574.815918
3706.071289	2557.643066
3705.325195	2573.990967
3704.579102	2385.921875
3703.833008	2512.857666
3703.086914	2458.855957
3702.339844	2498.654785
3701.593750	2545.138428
3700.846680	2494.505859
3700.100586	2544.322998
3699.353516	2584.082275
3698.606445	2510.040527
3697.859375	2576.562012
3697.112305	2606.260010
3696.365234	2538.940186
3695.617188	2705.762207
3694.870117	2625.071777
3694.122070	2611.277100
3693.374023	2507.226563
3692.625977	2667.261719
3691.877930	2583.286865
3691.129883	2612.945313
3690.381836	2615.867432
3689.632813	2685.594482
3688.884766	2748.619385
3688.135742	2741.500732
3687.386719	2767.770996
3686.638672	2727.269531
3685.889648	2696.794189
3685.139648	2789.800293
3684.390625	2685.920410
3683.641602	2772.226318
3682.891602	2708.408203
3682.142578	2741.323486
3681.392578	2774.228516
3680.642578	2780.451660
3679.892578	2813.339600
3679.142578	2862.881104
3678.392578	2899.077393
3677.641602	2851.968506
3676.891602	2794.881104
3676.140625	2891.022705
3675.389648	2747.363525
3674.639648	2920.062988
3673.888672	2892.962402
3673.136719	2925.784424
3672.385742	2938.627686
3671.634766	3037.980957
3670.882813	3037.494141
3670.131836	3033.681152
3669.379883	3019.891602
3668.627930	3122.493164
3667.875977	3188.489258
3667.124023	3111.520020
3666.372070	3174.172607
3665.620117	3216.865723
3664.867188	3176.478271
3664.115234	3278.955811
3663.362305	3178.782227
3662.609375	3248.015625
3661.856445	3466.651367
3661.103516	3409.655518
3660.350586	3319.483398
3659.596680	3461.666260
3658.843750	3391.425049
3658.089844	3417.424805
3657.336914	3343.895264
3656.583008	3466.082275
3655.829102	3641.290527
3655.075195	3640.707031
3654.321289	3683.221680
3653.566406	3649.484619
3652.812500	3622.386719
3652.057617	3588.669922
3651.303711	3700.740723
3650.548828	3759.774170
3649.793945	3643.250244
3649.039063	3672.470215
3648.284180	3863.918945
3647.528320	3760.675781
3646.773438	3872.610840
3646.017578	3852.134033
3645.262695	3897.840820
3644.506836	3860.824707
3643.750977	4108.291504
3642.995117	4114.248047
3642.239258	4011.079590
3641.482422	4050.111572
3640.726563	4029.628662
3639.969727	4022.372803
3639.213867	4163.827148
3638.457031	4166.464355
3637.700195	4274.814453
3636.943359	4297.250977
3636.186523	4322.982422
3635.429688	4246.344238
3634.671875	4291.884277
3633.915039	4317.604004
3633.157227	4465.430176
3632.399414	4510.913086
3631.641602	4378.216797
3630.883789	4443.491699
3630.125977	4422.990234
3629.368164	4524.511719
3628.609375	4523.786621
3627.851563	4532.952148
3627.092773	4690.441895
3626.333984	4511.726074
3625.575195	4649.397949
3624.816406	4576.172363
3624.057617	4575.438965
3623.298828	4752.556641
3622.540039	4613.489258
3621.780273	4820.175781
3621.020508	4779.899902
3620.261719	4914.082520
3619.501953	4965.949219
3618.742188	4955.282715
3617.982422	4829.475098
3617.221680	4884.619629
3616.461914	4910.147461
3615.701172	4876.478516
3614.941406	5099.262207
3614.180664	4970.244629
3613.419922	4936.581543
3612.659180	4932.504883
3611.898438	5072.996094
3611.137695	5105.034180
3610.375977	5183.046387
3609.615234	5172.363770
3608.853516	5217.504395
3608.091797	5141.159668
3607.330078	5225.680176
3606.568359	5149.358398
3605.806641	5250.257324
3605.044922	5216.607422
3604.282227	5133.762695
3603.520508	5234.614746
3602.757813	5115.721191
3601.995117	5252.610840
3601.233398	5376.342773
3600.470703	5280.427246
3599.707031	5394.283691
3598.944336	5245.968750
3598.181641	5408.936035
3597.417969	5365.486328
3596.655273	5430.128906
3595.891602	5435.808594
3595.127930	5506.966797
3594.364258	5371.869629
3593.600586	5498.656738
3592.835938	5507.593262
3592.072266	5294.033203
3591.307617	5404.414063
3590.543945	5423.173828
3589.779297	5576.013184
3589.014648	5441.055176
3588.250000	5662.499023
3587.485352	5370.666992
3586.720703	5588.782227
3585.955078	5561.744629
3585.190430	5521.646973
3584.424805	5524.028809
3583.659180	5493.748047
3582.893555	5525.524902
3582.127930	5704.223145
3581.362305	5553.136230
3580.596680	5565.303223
3579.830078	5802.653320
3579.064453	5651.622559
3578.297852	5543.053711
3577.531250	5620.454102
3576.764648	5515.185547
3575.998047	5553.433594
3575.231445	5627.534180
3574.464844	5639.672363
3573.698242	5658.325684
3572.930664	5683.490234
3572.163086	5636.962402
3571.396484	5642.575195
3570.628906	5856.653809
3569.861328	5490.954590
3569.092773	5789.652344
3568.325195	5827.793457
3567.557617	5686.885254
3566.789063	5806.398438
3566.020508	5880.314453
3565.252930	5785.016113
3564.484375	5771.076660
3563.715820	5718.109863
3562.946289	5769.227539
3562.177734	6008.920410
3561.409180	5695.855957
3560.639648	5772.956055
3559.870117	5794.781738
3559.101563	5972.575684
3558.332031	5792.924805
3557.562500	5743.270020
3556.791992	5745.597656
3556.022461	5790.141113
3555.252930	5912.595703
3554.482422	5781.793457
3553.711914	5790.604492
3552.942383	5799.413086
3552.171875	5993.172852
3551.401367	5700.226074
3550.629883	5910.158203
3549.859375	5873.535156
3549.088867	5739.642090
3548.317383	5920.286621
3547.545898	5971.205566
3546.774414	5876.254395
3546.002930	5872.072754
3545.231445	5819.289551
3544.459961	5841.034668
3543.688477	5904.880859
3542.916016	5829.447266
3542.144531	6071.368164
3541.372070	5798.441895
3540.599609	5842.831055
3539.827148	5981.064941
3539.054688	6041.590332
3538.282227	5898.261719
3537.509766	5774.388672
3536.736328	5938.419434
3535.962891	6076.526367
3535.190430	5862.148438
3534.416992	6019.620605
3533.643555	5895.826172
3532.870117	5962.750488
3532.095703	5816.385254
3531.322266	5876.838867
3530.548828	5862.976074
3529.774414	5781.292480
3529.000000	5760.990723
3528.225586	5856.929688
3527.451172	5862.447754
3526.676758	5855.053223
3525.902344	5954.157715
3525.127930	5801.550293
3524.352539	5878.048828
3523.577148	5822.270996
3522.802734	5727.809570
3522.027344	5936.491211
3521.251953	5854.937988
3520.476563	5679.927246
3519.700195	5717.693848
3518.924805	5755.448242
3518.148438	5764.191895
3517.373047	5824.477051
3516.596680	5726.914063
3515.820313	5574.634277
3515.043945	5689.659668
3514.267578	5820.745117
3513.490234	5678.179688
3512.713867	5802.787598
3511.937500	5824.383301
3511.160156	5672.233398
3510.382813	5632.722168
3509.605469	5789.420410
3508.828125	5778.845703
3508.050781	5887.240234
3507.273438	5728.771973
3506.495117	5724.639648
3505.716797	5640.164551
3504.939453	5822.416016
3504.161133	5525.911133
3503.382813	5823.762695
3502.604492	5720.054688
3501.826172	5603.535156
3501.046875	5759.960938
3500.268555	5733.356445
3499.489258	5722.809082
3498.710938	5750.773926
3497.931641	5724.183594
3497.152344	5620.606934
3496.373047	5728.764648
3495.592773	5439.209473
3494.813477	5739.755371
3494.034180	5742.041504
3493.253906	5670.599609
3492.473633	5563.924805
3491.693359	5431.648438
3490.913086	5501.266113
3490.132813	5561.250977
3489.352539	5531.532715
3488.572266	5572.278320
3487.791016	5472.125488
3487.009766	5624.917480
3486.229492	5515.184570
3485.448242	5527.102539
3484.666992	5452.619141
3483.885742	5589.318848
3483.103516	5409.286621
3482.322266	5571.536133
3481.540039	5471.510254
3480.758789	5812.747559
3479.976563	5370.655273
3479.194336	5497.646973
3478.412109	5474.395508
3477.629883	5534.228516
3476.846680	5546.120605
3476.064453	5366.353516
3475.281250	5445.337402
3474.499023	5447.657715
3473.715820	5344.617676
3472.932617	5500.179688
3472.149414	5310.987793
3471.366211	5456.931641
3470.582031	5443.294434
3469.798828	5723.156738
3469.014648	5364.998047
3468.231445	5475.758301
3467.447266	5299.506348
3466.663086	5474.003418
3465.878906	5409.374023
3465.093750	5347.952637
3464.309570	5321.602539
3463.524414	5438.634766
3462.740234	5332.639648
3461.955078	5478.297363
3461.169922	5324.561035
3460.384766	5244.106934
3459.599609	5341.956055
3458.814453	5392.028320
3458.028320	5387.981445
3457.243164	5301.204102
3456.457031	5392.617676
3455.670898	5188.170898
3454.885742	5257.309570
3454.098633	5355.045898
3453.312500	5424.135254
3452.526367	5159.414551
3451.740234	5282.546387
3450.953125	5332.546387
3450.166016	5141.046875
3449.379883	5143.399902
3448.592773	5155.281250
3447.804688	5170.334473
3447.017578	5188.558105
3446.230469	5238.524414
3445.442383	5193.243652
3444.655273	5119.413086
3443.867188	5102.725586
3443.079102	5181.228516
3442.291016	4999.576172
3441.502930	5268.378906
3440.714844	5093.112793
3439.926758	5082.784180
3439.137695	5139.034668
3438.348633	5135.041016
3437.560547	5035.970703
3436.771484	4933.763184
3435.982422	4961.486816
3435.193359	5005.040039
3434.403320	5124.592773
3433.614258	5035.103027
3432.824219	5103.952637
3432.035156	4903.694336
3431.245117	5080.160156
3430.455078	5063.522461
3429.665039	4879.187500
3428.875000	4992.298340
3428.084961	4906.092285
3427.293945	4933.770020
3426.503906	4891.871094
3425.712891	4808.883789
3424.921875	4887.141602
3424.130859	4861.073242
3423.339844	4917.176758
3422.548828	4790.002930
3421.756836	4684.983887
3420.965820	4725.295410
3420.173828	4762.435059
3419.382813	4970.073730
3418.590820	4640.938477
3417.798828	4839.060059
3417.006836	4772.006836
3416.213867	4676.574219
3415.421875	4641.118652
3414.628906	4706.620605
3413.836914	4787.872070
3413.043945	4717.726074
3412.250977	4735.888184
3411.458008	4735.128906
3410.665039	4529.487305
3409.872070	4683.186523
3409.078125	4625.717285
3408.285156	4678.534668
3407.491211	4709.284668
