#Wave		#Intensity
4002.039063	1907.834351
4001.340820	1789.713257
4000.642578	1742.900513
3999.943359	1878.594849
3999.245117	1867.559937
3998.545898	1788.562988
3997.846680	1859.806519
3997.147461	1866.659668
3996.448242	1784.125366
3995.749023	1787.413452
3995.049805	1712.066895
3994.350586	1786.839111
3993.650391	1736.528442
3992.951172	1800.554932
3992.250977	1739.542358
3991.550781	1710.691772
3990.850586	1792.545410
3990.150391	1802.968140
3989.450195	1802.678345
3988.750000	1802.388672
3988.048828	1773.551025
3987.348633	1791.105713
3986.647461	1783.683228
3985.947266	1779.829834
3985.246094	1854.434448
3984.544922	1847.005127
3983.843750	1811.057617
3983.141602	1739.476685
3982.440430	1746.325073
3981.739258	1774.551270
3981.037109	1784.954590
3980.334961	1809.603271
3979.633789	1784.381104
3978.931641	1748.483643
3978.229492	1737.521362
3977.527344	1804.880737
3976.824219	1833.065552
3976.122070	1868.358887
3975.419922	1757.754272
3974.716797	1753.914185
3974.013672	1689.605347
3973.311523	1785.359253
3972.608398	1877.526367
3971.905273	1834.560547
3971.201172	1720.512939
3970.498047	1801.983276
3969.794922	1755.496582
3969.090820	1858.253540
3968.387695	1715.855225
3967.683594	1754.650757
3966.979492	1757.920288
3966.275391	1814.450439
3965.571289	1629.547852
3964.867188	1785.470459
3964.163086	1746.143799
3963.458008	1763.605835
3962.753906	1770.418457
3962.048828	1716.923706
3961.343750	1698.913940
3960.638672	1688.002441
3959.933594	1748.007446
3959.228516	1754.816772
3958.523438	1804.158203
3957.817383	1857.027588
3957.112305	1714.994263
3956.406250	1792.660645
3955.701172	1725.070190
3954.995117	1742.501465
3954.289063	1869.701294
3953.583008	1649.888062
3952.876953	1755.821899
3952.169922	1695.370239
3951.463867	1680.942749
3950.757813	1723.131836
3950.050781	1761.769775
3949.343750	1662.447388
3948.636719	1775.350220
3947.929688	1668.985474
3947.222656	1764.173828
3946.515625	1679.054077
3945.808594	1728.264404
3945.100586	1735.054321
3944.393555	1805.438721
3943.685547	1709.769043
3942.977539	1684.770508
3942.269531	1716.282959
3941.561523	1730.130859
3940.853516	1662.777100
3940.145508	1789.581055
3939.436523	1697.535034
3938.728516	1721.962769
3938.019531	1735.798462
3937.311523	1746.102173
3936.602539	1632.960571
3935.893555	1745.541504
3935.184570	1713.529297
3934.474609	1621.598633
3933.765625	1691.831177
3933.056641	1751.468994
3932.346680	1691.287964
3931.636719	1712.154175
3930.927734	1676.655396
3930.217773	1739.779053
3929.507813	1654.989624
3928.797852	1777.947998
3928.086914	1710.780273
3927.376953	1682.349121
3926.666992	1632.813110
3925.956055	1716.993286
3925.245117	1723.753418
3924.534180	1670.717163
3923.823242	1712.649780
3923.112305	1726.439575
3922.401367	1638.272339
3921.690430	1729.400391
3920.979492	1676.405640
3920.267578	1655.053101
3919.555664	1689.920898
3918.844727	1707.213501
3918.132813	1812.306152
3917.420898	1678.572266
3916.708984	1685.324951
3915.996094	1727.180908
3915.284180	1737.433472
3914.572266	1621.344360
3913.859375	1684.243286
3913.146484	1610.299072
3912.433594	1732.810547
3911.720703	1690.446655
3911.007813	1644.589722
3910.294922	1682.891968
3909.582031	1693.138306
3908.869141	1724.410645
3908.155273	1685.586182
3907.441406	1580.202393
3906.728516	1713.070923
3906.014648	1674.266846
3905.300781	1628.470947
3904.586914	1701.741699
3903.872070	1610.443481
3903.158203	1739.699951
3902.444336	1658.924316
3901.729492	1707.648071
3901.014648	1770.350952
3900.300781	1630.140625
3899.585938	1678.845337
3898.871094	1713.546265
3898.155273	1594.391235
3897.440430	1730.475830
3896.725586	1772.142334
3896.009766	1614.592529
3895.294922	1691.206421
3894.579102	1642.023682
3893.863281	1669.705078
3893.147461	1697.377441
3892.431641	1690.121094
3891.715820	1654.935669
3890.999023	1672.124390
3890.283203	1675.346436
3889.566406	1744.872559
3888.850586	1695.743896
3888.133789	1712.914917
3887.416992	1684.735596
3886.700195	1642.615234
3885.983398	1649.325562
3885.265625	1673.465576
3884.548828	1680.168701
3883.831055	1686.869751
3883.114258	1728.415527
3882.396484	1648.002808
3881.678711	1592.000977
3880.960938	1710.168579
3880.243164	1605.420044
3879.525391	1646.945435
3878.806641	1625.793091
3878.088867	1615.089844
3877.370117	1764.480957
3876.652344	1590.213867
3875.933594	1544.730103
3875.214844	1610.575073
3874.496094	1568.580566
3873.777344	1721.336670
3873.057617	1696.722290
3872.338867	1626.923462
3871.619141	1644.041260
3870.900391	1643.777588
3870.180664	1688.684448
3869.460938	1605.035034
3868.741211	1677.722046
3868.021484	1601.047119
3867.301758	1628.569702
3866.581055	1687.330322
3865.861328	1655.817871
3865.140625	1686.789063
3864.420898	1679.578003
3863.700195	1623.794312
3862.979492	1647.817383
3862.258789	1623.273438
3861.538086	1640.352905
3860.816406	1588.078491
3860.095703	1657.161011
3859.374023	1667.294067
3858.653320	1615.040405
3857.931641	1677.154785
3857.209961	1638.774780
3856.488281	1666.224609
3855.766602	1693.665527
3855.044922	1658.764160
3854.322266	1686.197510
3853.600586	1755.164185
3852.877930	1554.126953
3852.156250	1571.181396
3851.433594	1612.451782
3850.710938	1591.435303
3849.988281	1594.639160
3849.264648	1539.046875
3848.541992	1725.530762
3847.819336	1624.988770
3847.095703	1579.788818
3846.372070	1627.923828
3845.649414	1634.574341
3844.925781	1575.573608
3844.202148	1599.503540
3843.478516	1671.782959
3842.753906	1654.247192
3842.030273	1626.357910
3841.305664	1467.285156
3840.582031	1639.643921
3839.857422	1673.894165
3839.132813	1701.231934
3838.408203	1652.656006
3837.683594	1576.498291
3836.958984	1707.311768
3836.234375	1624.272583
3835.508789	1586.083984
3834.783203	1609.961792
3834.058594	1664.854126
3833.333008	1568.089233
3832.607422	1657.428589
3831.881836	1581.367432
3831.156250	1598.337280
3830.430664	1670.407837
3829.704102	1677.027222
3828.978516	1597.568481
3828.251953	1662.719482
3827.525391	1590.172241
3826.798828	1651.862061
3826.072266	1493.319092
3825.345703	1568.765747
3824.619141	1626.989502
3823.892578	1606.093628
3823.165039	1619.590576
3822.437500	1633.083130
3821.710938	1591.571045
3820.983398	1587.878906
3820.255859	1608.242798
3819.528320	1621.728271
3818.800781	1573.373901
3818.072266	1624.643066
3817.344727	1641.553589
3816.616211	1582.918213
3815.888672	1620.428589
3815.160156	1637.331543
3814.431641	1674.821167
3813.703125	1643.669434
3812.974609	1612.527710
3812.245117	1595.117432
3811.516602	1636.019409
3810.788086	1742.064087
3810.058594	1625.208618
3809.329102	1645.517090
3808.599609	1641.825684
3807.870117	1573.021118
3807.140625	1579.621948
3806.411133	1647.887939
3805.681641	1620.220459
3804.951172	1544.613647
3804.221680	1530.668823
3803.491211	1653.678955
3802.760742	1564.410156
3802.030273	1636.035400
3801.299805	1577.597168
3800.569336	1567.079468
3799.837891	1624.985596
3799.107422	1655.509399
3798.375977	1597.105225
3797.645508	1668.656128
3796.914063	1606.849731
3796.182617	1651.029785
3795.451172	1582.410400
3794.719727	1616.328613
3793.988281	1547.736694
3793.255859	1629.474731
3792.524414	1564.318237
3791.791992	1707.497192
3791.059570	1662.835693
3790.327148	1679.638550
3789.594727	1594.035522
3788.862305	1563.064697
3788.129883	1521.867065
3787.397461	1531.858276
3786.664063	1681.703857
3785.931641	1585.937012
3785.198242	1660.704346
3784.464844	1599.066772
3783.731445	1564.720581
3782.998047	1601.962524
3782.264648	1646.008301
3781.531250	1601.448975
3780.796875	1577.344727
3780.063477	1553.248169
3779.329102	1610.896118
3778.594727	1634.473999
3777.860352	1658.044189
3777.125977	1599.909424
3776.391602	1630.284546
3775.657227	1636.829224
3774.921875	1626.359619
3774.187500	1704.342163
3773.452148	1625.838257
3772.716797	1554.161011
3771.981445	1594.714844
3771.246094	1601.258667
3770.510742	1584.006226
3769.775391	1580.353760
3769.040039	1573.304321
3768.303711	1566.257080
3767.568359	1572.799927
3766.832031	1698.215820
3766.095703	1555.316406
3765.359375	1599.206543
3764.623047	1565.002197
3763.886719	1632.636475
3763.149414	1612.012573
3762.413086	1662.651733
3761.675781	1540.250732
3760.939453	1655.334595
3760.202148	1597.413208
3759.464844	1763.315796
3758.727539	1607.072510
3757.990234	1711.901978
3757.251953	1626.893555
3756.514648	1640.188110
3755.776367	1629.760376
3755.039063	1612.560547
3754.300781	1558.107056
3753.562500	1608.657104
3752.824219	1615.171509
3752.085938	1675.852661
3751.346680	1739.899414
3750.608398	1658.393188
3749.870117	1553.225464
3749.130859	1644.328125
3748.391602	1681.275879
3747.652344	1667.477295
3746.913086	1636.774170
3746.173828	1653.417969
3745.434570	1626.107544
3744.695313	1673.168823
3743.955078	1564.753540
3743.214844	1686.148804
3742.475586	1689.257080
3741.735352	1655.206665
3740.995117	1661.696289
3740.254883	1651.299316
3739.514648	1681.421753
3738.773438	1627.139404
3738.033203	1704.509766
3737.291992	1602.994873
3736.551758	1734.331177
3735.810547	1646.338501
3735.069336	1608.970581
3734.328125	1635.693237
3733.586914	1561.246582
3732.844727	1614.940063
3732.103516	1709.067749
3731.361328	1675.089844
3730.620117	1711.889893
3729.877930	1704.876831
3729.135742	1593.433838
3728.393555	1626.860962
3727.651367	1646.806396
3726.908203	1562.363525
3726.166016	1767.477173
3725.422852	1699.872192
3724.680664	1632.288940
3723.937500	1675.772461
3723.194336	1662.046021
3722.451172	1688.691162
3721.708008	1745.598145
3720.964844	1725.141357
3720.220703	1751.763306
3719.477539	1754.844360
3718.733398	1791.536743
3717.989258	1801.331787
3717.246094	1740.560303
3716.501953	1760.439087
3715.756836	1723.207153
3715.012695	1709.496826
3714.268555	1736.086914
3713.523438	1846.605103
3712.779297	1792.598389
3712.034180	1792.311157
3711.289063	1845.717529
3710.543945	1835.355835
3709.798828	1710.935059
3709.053711	1797.871094
3708.308594	1733.862793
3707.562500	1757.057007
3706.817383	1763.480835
3706.071289	1776.606567
3705.325195	1813.188965
3704.579102	1839.706543
3703.833008	1815.958374
3703.086914	1879.316284
3702.339844	1711.545044
3701.593750	1835.178833
3700.846680	1868.368042
3700.100586	1878.112061
3699.353516	1867.769409
3698.606445	1834.002930
3697.859375	1766.785400
3697.112305	1860.180420
3696.365234	1889.988403
3695.617188	1919.786743
3694.870117	1926.167236
3694.122070	1972.667725
3693.374023	1958.979736
3692.625977	1945.296143
3691.877930	1901.539795
3691.129883	1861.138794
3690.381836	1870.863037
3689.632813	2034.237549
3688.884766	2003.853760
3688.135742	2053.621094
3687.386719	1949.792725
3686.638672	2032.934082
3685.889648	2022.595581
3685.139648	1955.529907
3684.390625	2025.284058
3683.641602	2121.703857
3682.891602	2051.318848
3682.142578	2114.354248
3681.392578	2110.680908
3680.642578	2090.339600
3679.892578	2083.338135
3679.142578	2129.663574
3678.392578	2095.999512
3677.641602	2202.279297
3676.891602	2145.296143
3676.140625	2031.709595
3675.389648	2261.163574
3674.639648	2247.482910
3673.888672	2230.477295
3673.136719	2306.676514
3672.385742	2296.322754
3671.634766	2259.352783
3670.882813	2308.894775
3670.131836	2258.628906
3669.379883	2294.851563
3668.627930	2327.737305
3667.875977	2450.382080
3667.124023	2366.882813
3666.372070	2409.712158
3665.620117	2336.215576
3664.867188	2475.393555
3664.115234	2428.487061
3663.362305	2404.846680
3662.609375	2457.598633
3661.856445	2500.372070
3661.103516	2559.731689
3660.350586	2569.280029
3659.596680	2711.583252
3658.843750	2568.456787
3658.089844	2624.449463
3657.336914	2816.435791
3656.583008	2666.727295
3655.829102	2706.095703
3655.075195	2722.240967
3654.321289	2764.902832
3653.566406	2807.551025
3652.812500	2889.955322
3652.057617	2839.787842
3651.303711	2882.403320
3650.548828	2832.252686
3649.793945	2891.415771
3649.039063	3066.462891
3648.284180	3019.617920
3647.528320	2946.304199
3646.773438	3008.720703
3646.017578	3028.094971
3645.262695	3163.273193
3644.506836	3126.374756
3643.750977	3192.030029
3642.995117	3227.898682
3642.239258	3263.755615
3641.482422	3223.558350
3640.726563	3256.098633
3639.969727	3404.308838
3639.213867	3364.108154
3638.457031	3363.569092
3637.700195	3422.494385
3636.943359	3435.158203
3636.186523	3513.868164
3635.429688	3486.889404
3634.671875	3605.182861
3633.915039	3469.267578
3633.157227	3610.628662
3632.399414	3732.145264
3631.641602	3635.866455
3630.883789	3691.363770
3630.125977	3654.491455
3629.368164	3789.113525
3628.609375	3679.698242
3627.851563	3715.372314
3627.092773	3971.877930
3626.333984	3822.937988
3625.575195	3795.964844
3624.816406	3864.542725
3624.057617	4002.273926
3623.298828	3935.762207
3622.540039	3823.169922
3621.780273	4026.690430
3621.020508	3960.206543
3620.261719	4117.560059
3619.501953	3955.646973
3618.742188	4080.046875
3617.982422	4069.523682
3617.221680	4233.336914
3616.461914	4143.861816
3615.701172	4208.962891
3614.941406	4260.892578
3614.180664	4108.998535
3613.419922	4164.213867
3612.659180	4216.125000
3611.898438	4356.730957
3611.137695	4277.190918
3610.375977	4358.620117
3609.615234	4311.945313
3608.853516	4294.836914
3608.091797	4386.072266
3607.330078	4208.116699
3606.568359	4342.001953
3605.806641	4367.557617
3605.044922	4379.981445
3604.282227	4389.121094
3603.520508	4522.891113
3602.757813	4522.166504
3601.995117	4387.011719
3601.233398	4389.587402
3600.470703	4418.383789
3599.707031	4538.932617
3598.944336	4508.715332
3598.181641	4491.612305
3597.417969	4546.578125
3596.655273	4696.504883
3595.891602	4653.183105
3595.127930	4606.600586
3594.364258	4533.844727
3593.600586	4657.493164
3592.835938	4624.021973
3592.072266	4727.983887
3591.307617	4566.926270
3590.543945	4667.592773
3589.779297	4719.171387
3589.014648	4662.827637
3588.250000	4599.962891
3587.485352	4684.215332
3586.720703	4752.099121
3585.955078	4699.053711
3585.190430	4717.904297
3584.424805	4779.216309
3583.659180	4830.709473
3582.893555	4722.168457
3582.127930	4835.692383
3581.362305	4606.393555
3580.596680	4719.899414
3579.830078	4771.360352
3579.064453	4809.752930
3578.297852	4746.994141
3577.531250	4831.045898
3576.764648	4817.226074
3575.998047	4819.715332
3575.231445	4805.901367
3574.464844	4906.188965
3573.698242	4814.139648
3572.930664	4699.307617
3572.163086	4841.922852
3571.396484	5026.843750
3570.628906	4960.892090
3569.861328	4722.351563
3569.092773	5034.196777
3568.325195	5020.367676
3567.557617	4951.203125
3566.789063	5132.673828
3566.020508	4933.346191
3565.252930	5137.536621
3564.484375	5006.587891
3563.715820	4953.743652
3562.946289	4858.639160
3562.177734	5020.439941
3561.409180	4964.367676
3560.639648	4940.818359
3559.870117	4949.776855
3559.101563	5095.211426
3558.332031	5042.411621
3557.562500	4892.174805
3556.791992	5018.060059
3556.022461	4949.060547
3555.252930	5097.625000
3554.482422	5083.822754
3553.711914	5024.583008
3552.942383	4936.153809
3552.171875	4980.790527
3551.401367	4954.038086
3550.629883	4917.562988
3549.859375	4975.153809
3549.088867	4980.842285
3548.317383	5009.224121
3547.545898	4985.729492
3546.774414	5059.478027
3546.002930	4922.559570
3545.231445	5099.978516
3544.459961	5118.599121
3543.688477	5040.041016
3542.916016	5006.847656
3542.144531	5064.330566
3541.372070	5034.381348
3540.599609	4946.174805
3539.827148	4909.780762
3539.054688	5064.321777
3538.282227	5079.687988
3537.509766	5023.879883
3536.736328	5110.404785
3535.962891	5125.755371
3535.190430	5060.266113
3534.416992	4985.099121
3533.643555	4987.532715
3532.870117	5054.602539
3532.095703	5005.322754
3531.322266	5056.213867
3530.548828	5090.937012
3529.774414	5125.648926
3529.000000	4995.657227
3528.225586	4985.170898
3527.451172	5013.425781
3526.676758	5167.552734
3525.902344	4986.001953
3525.127930	5133.629883
3524.352539	5048.927734
3523.577148	4964.251953
3522.802734	5131.163086
3522.027344	4972.335449
3521.251953	5113.398438
3520.476563	4941.729980
3519.700195	4905.484863
3518.924805	5007.819824
3518.148438	4932.911133
3517.373047	4912.791504
3516.596680	4908.783691
3515.820313	4975.626953
3515.043945	4778.412598
3514.267578	4925.741211
3513.490234	4883.105957
3512.713867	4937.036133
3511.937500	5110.011230
3511.160156	4809.976563
3510.382813	4921.796387
3509.605469	4991.767090
3508.828125	4971.672363
3508.050781	4916.215332
3507.273438	4941.145996
3506.495117	4782.854492
3505.716797	4904.211426
3504.939453	4935.558105
3504.161133	4954.043457
3503.382813	4815.124023
3502.604492	4852.893066
3501.826172	4874.594238
3501.046875	4905.919922
3500.268555	4670.791504
3499.489258	4888.299316
3498.710938	4669.294922
3497.931641	4793.683105
3497.152344	4792.915039
3496.373047	4840.260742
3495.592773	4865.142090
3494.813477	4790.611328
3494.034180	4895.643555
3493.253906	4827.542480
3492.473633	4881.254395
3491.693359	4675.383789
3490.913086	4815.610352
3490.132813	4917.350098
3489.352539	4842.894043
3488.572266	4755.651367
3487.791016	4793.312988
3487.009766	4824.559082
3486.229492	4807.781250
3485.448242	4723.800293
3484.666992	4652.645996
3483.885742	4728.685547
3483.103516	4699.137695
3482.322266	4803.930664
3481.540039	4656.060059
3480.758789	4620.143066
3479.976563	4875.148438
3479.194336	4730.533203
3478.412109	4844.823730
3477.629883	4716.236328
3476.846680	4689.922363
3476.064453	4577.371582
3475.281250	4634.125488
3474.499023	4611.030273
3473.715820	4540.051758
3472.932617	4612.745117
3472.149414	4596.047363
3471.366211	4454.898438
3470.582031	4533.951660
3469.798828	4536.415039
3469.014648	4580.343262
3468.231445	4605.122559
3467.447266	4578.875488
3466.663086	4632.339844
3465.878906	4481.779785
3465.093750	4662.726074
3464.309570	4445.291016
3463.524414	4613.440430
3462.740234	4539.433105
3461.955078	4455.894043
3461.169922	4678.098633
3460.384766	4546.803223
3459.599609	4476.037109
3458.814453	4453.038574
3458.028320	4420.500000
3457.243164	4372.061523
3456.457031	4409.538574
3455.670898	4628.319336
3454.885742	4436.749512
3454.098633	4445.578613
3453.312500	4441.686523
3452.526367	4399.648438
3451.740234	4427.549316
3450.953125	4569.845703
3450.166016	4496.033203
3449.379883	4488.958984
3448.592773	4304.008789
3447.804688	4465.289063
3447.017578	4267.700195
3446.230469	4352.737305
3445.442383	4456.793457
3444.655273	4329.125488
3443.867188	4201.498047
3443.079102	4349.947754
3442.291016	4358.767578
3441.502930	4212.165527
3440.714844	4297.115723
3439.926758	4223.498535
3439.137695	4219.651367
3438.348633	4209.465820
3437.560547	4199.283203
3436.771484	4268.322754
3435.982422	4229.619629
3435.193359	4257.451660
3434.403320	4266.270996
3433.614258	4186.418945
3432.824219	4245.906250
3432.035156	4166.082520
3431.245117	4238.214844
3430.455078	4281.841309
3429.665039	4065.989746
3428.875000	4169.739746
3428.084961	4093.155029
3427.293945	4083.010986
3426.503906	4139.275391
3425.712891	4091.187012
3424.921875	4036.791748
3424.130859	4023.502197
3423.339844	4155.583008
3422.548828	4139.118652
3421.756836	4053.158936
3420.965820	4055.667725
3420.173828	4067.650146
3419.382813	3975.427490
3418.590820	3981.104492
3417.798828	4103.573730
3417.006836	4137.632813
3416.213867	3976.034668
3415.421875	4066.894531
3414.628906	3886.432129
3413.836914	4015.125732
3413.043945	3863.111328
3412.250977	3957.083740
3411.458008	3909.161133
3410.665039	4012.552002
3409.872070	3860.634766
3409.078125	3828.505615
3408.285156	3938.160400
3407.491211	3912.328857
