#Wave		#Intensity
4002.039063	1660.853882
4001.340820	1721.704102
4000.642578	1631.956177
3999.943359	1663.898315
3999.245117	1695.830200
3998.545898	1688.403442
3997.846680	1688.132080
3997.147461	1687.860840
3996.448242	1669.712524
3995.749023	1680.168701
3995.049805	1787.126221
3994.350586	1693.923462
3993.650391	1732.955322
3992.951172	1679.088867
3992.250977	1646.671509
3991.550781	1646.406860
3990.850586	1728.270874
3990.150391	1617.315918
3989.450195	1556.371826
3988.750000	1727.437866
3988.048828	1605.830933
3987.348633	1662.659912
3986.647461	1708.768555
3985.947266	1687.093140
3985.246094	1601.232788
3984.544922	1590.278564
3983.843750	1668.454712
3983.141602	1714.525146
3982.440430	1760.580811
3981.739258	1696.157471
3981.037109	1635.317627
3980.334961	1784.667725
3979.633789	1684.655151
3978.931641	1684.384521
3978.229492	1662.750977
3977.527344	1723.002441
3976.824219	1630.182495
3976.122070	1637.038208
3975.419922	1672.357300
3974.716797	1593.820679
3974.013672	1686.048218
3973.311523	1621.760498
3972.608398	1546.825684
3971.905273	1713.678589
3971.201172	1631.643433
3970.498047	1663.369263
3969.794922	1755.496582
3969.090820	1694.812500
3968.387695	1659.015259
3967.683594	1609.021851
3966.979492	1591.006592
3966.275391	1675.969849
3965.571289	1636.648315
3964.867188	1710.927856
3964.163086	1685.809570
3963.458008	1618.117310
3962.753906	1632.049072
3962.048828	1720.471069
3961.343750	1677.633179
3960.638672	1680.909912
3959.933594	1730.279175
3959.228516	1666.189697
3958.523438	1609.209839
3957.817383	1655.022705
3957.112305	1626.409912
3956.406250	1689.919189
3955.701172	1501.909180
3954.995117	1615.001343
3954.289063	1703.269531
3953.583008	1593.239502
3952.876953	1624.843262
3952.169922	1631.661133
3951.463867	1684.481567
3950.757813	1673.596191
3950.050781	1588.422974
3949.343750	1581.093628
3948.636719	1662.180420
3947.929688	1665.449463
3947.222656	1601.544556
3946.515625	1594.217651
3945.808594	1643.441650
3945.100586	1674.981201
3944.393555	1621.714966
3943.685547	1699.171387
3942.977539	1716.558594
3942.269531	1645.654053
3941.561523	1610.080933
3940.853516	1736.913696
3940.145508	1644.861450
3939.436523	1669.301636
3938.728516	1598.461304
3938.019531	1587.620483
3937.311523	1647.332764
3936.602539	1583.583862
3935.893555	1636.224854
3935.184570	1674.745728
3934.474609	1611.022949
3933.765625	1600.190308
3933.056641	1575.264893
3932.346680	1546.823853
3931.636719	1673.401733
3930.927734	1609.730103
3930.217773	1697.517212
3929.507813	1528.224487
3928.797852	1584.310181
3928.086914	1665.018677
3927.376953	1650.673096
3926.666992	1608.180176
3925.956055	1646.624756
3925.245117	1604.145996
3924.534180	1617.957764
3923.823242	1579.013916
3923.112305	1526.017944
3922.401367	1599.600586
3921.690430	1641.524414
3920.979492	1641.260864
3920.267578	1623.427856
3919.555664	1696.947632
3918.844727	1573.727661
3918.132813	1608.597290
3917.420898	1653.990601
3916.708984	1611.592041
3915.996094	1607.822876
3915.284180	1632.134521
3914.572266	1572.212646
3913.859375	1593.013428
3913.146484	1617.315674
3912.433594	1620.563721
3911.720703	1497.553345
3911.007813	1574.458008
3910.294922	1591.735352
3909.582031	1528.381592
3908.869141	1542.155884
3908.155273	1650.542847
3907.441406	1552.172241
3906.728516	1614.980957
3906.014648	1474.615723
3905.300781	1586.445923
3904.586914	1586.191284
3903.872070	1627.948242
3903.158203	1617.185791
3902.444336	1609.926636
3901.729492	1578.174683
3901.014648	1577.921509
3900.300781	1532.192261
3899.585938	1626.381348
3898.871094	1521.209351
3898.155273	1524.461792
3897.440430	1552.184448
3896.725586	1590.384155
3896.009766	1562.170654
3895.294922	1551.437256
3894.579102	1474.327637
3893.863281	1596.349731
3893.147461	1543.705444
3892.431641	1515.521851
3891.715820	1613.038574
3890.999023	1616.270630
3890.283203	1553.185791
3889.566406	1619.241699
3888.850586	1566.644043
3888.133789	1632.676636
3887.416992	1478.939697
3886.700195	1555.427612
3885.983398	1586.560547
3885.265625	1579.333130
3884.548828	1540.735718
3883.831055	1578.826416
3883.114258	1599.481323
3882.396484	1581.803955
3881.678711	1532.779907
3880.960938	1577.813354
3880.243164	1521.840698
3879.525391	1511.150757
3878.806641	1618.830322
3878.088867	1555.916260
3877.370117	1548.706177
3876.652344	1527.579590
3875.933594	1631.708252
3875.214844	1558.396606
3874.496094	1544.234497
3873.777344	1575.283813
3873.057617	1564.600464
3872.338867	1626.923462
3871.619141	1529.340698
3870.900391	1525.620117
3870.180664	1396.812988
3869.460938	1577.242188
3868.741211	1552.674438
3868.021484	1542.006348
3867.301758	1507.034668
3866.581055	1604.005371
3865.861328	1607.219360
3865.140625	1554.900146
3864.420898	1530.359375
3863.700195	1519.704956
3862.979492	1554.151978
3862.258789	1612.867798
3861.538086	1605.673096
3860.816406	1601.948120
3860.095703	1483.817749
3859.374023	1545.973267
3858.653320	1538.793823
3857.931641	1542.012207
3857.209961	1545.229492
3856.488281	1572.694336
3855.766602	1582.832642
3855.044922	1579.115845
3854.322266	1513.076538
3853.600586	1554.376221
3852.877930	1626.814331
3852.156250	1484.662598
3851.433594	1591.690552
3850.710938	1577.596680
3849.988281	1560.048218
3849.264648	1525.212646
3848.541992	1552.631836
3847.819336	1538.553223
3847.095703	1503.737793
3846.372070	1565.710205
3845.649414	1530.901489
3844.925781	1541.021606
3844.202148	1558.047729
3843.478516	1561.251953
3842.753906	1536.826660
3842.030273	1588.375122
3841.305664	1563.953247
3840.582031	1577.510010
3839.857422	1525.487061
3839.132813	1611.511841
3838.408203	1469.794312
3837.683594	1583.397583
3836.958984	1565.898071
3836.234375	1451.844482
3835.508789	1568.843872
3834.783203	1547.907593
3834.058594	1644.172607
3833.333008	1543.964844
3832.607422	1612.633179
3831.881836	1577.922119
3831.156250	1570.779663
3830.430664	1546.418823
3829.704102	1504.847778
3828.978516	1576.910278
3828.251953	1531.905029
3827.525391	1462.820801
3826.798828	1555.503418
3826.072266	1489.878296
3825.345703	1431.154663
3824.619141	1551.315552
3823.892578	1482.283325
3823.165039	1485.484253
3822.437500	1560.883667
3821.710938	1498.758057
3820.983398	1519.139526
3820.255859	1529.205200
3819.528320	1501.473022
3818.800781	1642.080200
3818.072266	1531.904419
3817.344727	1490.448242
3816.616211	1428.403442
3815.888672	1538.033936
3815.160156	1603.005981
3814.431641	1568.428833
3813.703125	1605.923462
3812.974609	1550.771362
3812.245117	1547.092407
3811.516602	1498.827026
3810.788086	1591.176636
3810.058594	1618.351196
3809.329102	1494.677979
3808.599609	1559.562988
3807.870117	1542.177612
3807.140625	1511.091797
3806.411133	1538.257202
3805.681641	1551.712158
3804.951172	1486.390991
3804.221680	1547.790405
3803.491211	1509.880859
3802.760742	1506.215576
3802.030273	1523.087402
3801.299805	1529.687500
3800.569336	1546.550049
3799.837891	1494.986816
3799.107422	1587.099854
3798.375977	1439.788696
3797.645508	1569.494141
3796.914063	1507.703613
3796.182617	1486.952271
3795.451172	1592.663574
3794.719727	1472.806763
3793.988281	1540.903442
3793.255859	1540.656372
3792.524414	1618.966919
3791.791992	1519.672485
3791.059570	1591.132324
3790.327148	1556.738159
3789.594727	1546.248535
3788.862305	1525.523926
3788.129883	1538.928345
3787.397461	1511.387939
3786.664063	1477.034058
3785.931641	1514.314087
3785.198242	1548.171997
3784.464844	1609.295288
3783.731445	1557.902710
3782.998047	1503.118042
3782.264648	1591.482056
3781.531250	1526.487549
3780.796875	1505.802124
3780.063477	1543.029419
3779.329102	1508.725098
3778.594727	1447.190430
3777.860352	1440.149292
3777.125977	1545.444336
3776.391602	1596.249390
3775.657227	1606.202515
3774.921875	1605.945068
3774.187500	1568.266846
3773.452148	1476.179443
3772.716797	1591.569702
3771.981445	1550.511719
3771.246094	1648.854492
3770.510742	1505.825684
3769.775391	1515.780151
3769.040039	1535.925537
3768.303711	1488.114136
3767.568359	1579.593872
3766.832031	1640.476563
3766.095703	1585.879395
3765.359375	1527.904297
3764.623047	1500.501099
3763.886719	1524.020386
3763.149414	1618.800049
3762.413086	1554.070313
3761.675781	1547.036011
3760.939453	1523.043579
3760.202148	1553.323242
3759.464844	1529.337280
3758.727539	1613.853394
3757.990234	1444.099487
3757.251953	1559.106323
3756.514648	1528.357178
3755.776367	1680.584595
3755.039063	1531.255005
3754.300781	1554.719849
3753.562500	1547.697388
3752.824219	1567.765991
3752.085938	1625.069336
3751.346680	1560.493530
3750.608398	1627.932861
3749.870117	1570.145142
3749.130859	1529.292847
3748.391602	1518.899170
3747.652344	1620.125000
3746.913086	1538.703003
3746.173828	1572.268555
3745.434570	1504.402954
3744.695313	1585.285278
3743.955078	1557.994385
3743.214844	1540.849487
3742.475586	1564.252075
3741.735352	1564.001465
3740.995117	1567.128174
3740.254883	1620.907349
3739.514648	1549.744141
3738.773438	1549.495850
3738.033203	1569.499146
3737.291992	1599.620117
3736.551758	1643.228149
3735.810547	1545.129150
3735.069336	1683.178833
3734.328125	1564.869385
3733.586914	1659.035278
3732.844727	1614.940063
3732.103516	1655.132568
3731.361328	1540.273682
3730.620117	1587.204956
3729.877930	1634.121094
3729.135742	1681.022217
3728.393555	1653.806885
3727.651367	1660.277222
3726.908203	1653.276855
3726.166016	1727.077637
3725.422852	1652.747070
3724.680664	1585.171387
3723.937500	1642.122437
3723.194336	1655.317139
3722.451172	1490.219482
3721.708008	1658.150024
3720.964844	1701.601318
3720.220703	1691.241821
3719.477539	1670.800171
3718.733398	1694.061035
3717.989258	1737.478638
3717.246094	1639.755737
3716.501953	1595.817871
3715.756836	1669.461914
3715.012695	1618.816284
3714.268555	1773.025024
3713.523438	1655.229614
3712.779297	1671.749023
3712.034180	1725.183350
3711.289063	1674.569214
3710.543945	1721.275269
3709.798828	1684.096924
3709.053711	1714.015259
3708.308594	1757.338623
3707.562500	1710.112793
3706.817383	1783.596558
3706.071289	1776.606567
3705.325195	1756.212524
3704.579102	1745.878174
3703.833008	1785.804077
3703.086914	1735.268921
3702.339844	1708.195557
3701.593750	1694.526489
3700.846680	1808.098145
3700.100586	1794.417236
3699.353516	1820.907837
3698.606445	1837.349609
3697.859375	1753.400635
3697.112305	1830.069580
3696.365234	1836.466553
3695.617188	1846.206055
3694.870117	1835.878174
3694.122070	1892.423584
3693.374023	1841.975830
3692.625977	1871.762573
3691.877930	1881.488403
3691.129883	1961.379639
3690.381836	1884.226318
3689.632813	1913.987061
3688.884766	1766.731079
3688.135742	1883.320801
3687.386719	1883.019043
3686.638672	1906.084351
3685.889648	1855.714722
3685.139648	1865.428711
3684.390625	1961.889648
3683.641602	1974.919312
3682.891602	2017.964111
3682.142578	1987.626343
3681.392578	1930.622925
3680.642578	1940.315186
3679.892578	1933.337646
3679.142578	2009.682495
3678.392578	2122.657715
3677.641602	2025.697266
3676.891602	1998.723022
3676.140625	2078.338867
3675.389648	2078.005859
3674.639648	2041.047363
3673.888672	2177.212158
3673.136719	2116.949707
3672.385742	2156.546631
3671.634766	2199.458252
3670.882813	2225.721436
3670.131836	2298.545654
3669.379883	2201.727051
3668.627930	2164.795654
3667.875977	2181.072754
3667.124023	2210.641846
3666.372070	2343.237305
3665.620117	2286.367432
3664.867188	2256.096924
3664.115234	2355.399902
3663.362305	2368.308838
3662.609375	2427.708984
3661.856445	2467.166504
3661.103516	2446.851074
3660.350586	2453.098145
3659.596680	2462.661865
3658.843750	2422.446289
3658.089844	2558.091797
3657.336914	2567.634033
3656.583008	2570.539307
3655.829102	2593.341553
3655.075195	2476.874512
3654.321289	2565.989014
3653.566406	2645.130615
3652.812500	2783.901855
3652.057617	2829.846924
3651.303711	2773.070557
3650.548828	2875.316162
3649.793945	2801.990723
3649.039063	2851.214355
3648.284180	2996.440918
3647.528320	2807.265137
3646.773438	2846.534424
3646.017578	3018.166748
3645.262695	2991.212402
3644.506836	3046.974854
3643.750977	3043.178955
3642.995117	3145.216797
3642.239258	2999.216309
3641.482422	3130.984375
3640.726563	3067.674561
3639.969727	3252.271729
3639.213867	3202.181396
3638.457031	3257.838135
3637.700195	3211.066162
3636.943359	3207.248779
3636.186523	3319.020264
3635.429688	3259.052734
3634.671875	3545.756836
3633.915039	3413.151855
3633.157227	3409.304688
3632.399414	3481.355469
3631.641602	3517.090576
3630.883789	3414.264160
3630.125977	3727.053467
3629.368164	3528.591553
3628.609375	3547.809570
3627.851563	3603.284912
3627.092773	3629.076904
3626.333984	3565.878418
3625.575195	3608.143555
3624.816406	3624.038330
3624.057617	3725.573486
3623.298828	3820.488770
3622.540039	3777.067871
3621.780273	3806.094971
3621.020508	3789.025635
3620.261719	3742.338623
3619.501953	3866.792969
3618.742188	3968.174561
3617.982422	3947.799805
3617.221680	3785.991455
3616.461914	4078.086182
3615.701172	3850.543457
3614.941406	3922.256592
3614.180664	4003.808350
3613.419922	4128.060547
3612.659180	4153.687988
3611.898438	4005.169922
3611.137695	4063.659912
3610.375977	4092.570068
3609.615234	4174.015625
3608.853516	4127.377441
3608.091797	4087.320557
3607.330078	4224.529297
3606.568359	4263.235352
3605.806641	4039.416748
3605.044922	4261.869629
3604.282227	4097.168945
3603.520508	4168.668945
3602.757813	4141.766602
3601.995117	4114.873047
3601.233398	4310.909180
3600.470703	4297.107422
3599.707031	4306.250977
3598.944336	4354.710938
3598.181641	4209.862793
3597.417969	4386.072266
3596.655273	4316.592285
3595.891602	4332.273926
3595.127930	4243.180176
3594.364258	4330.885742
3593.600586	4366.195313
3592.835938	4237.868652
3592.072266	4446.595215
3591.307617	4347.739746
3590.543945	4190.039551
3589.779297	4388.861816
3589.014648	4414.317871
3588.250000	4488.805664
3587.485352	4422.709961
3586.720703	4500.440430
3585.955078	4545.468262
3585.190430	4495.731445
3584.424805	4410.076172
3583.659180	4477.959961
3582.893555	4509.899414
3582.127930	4522.237305
3581.362305	4557.423828
3580.596680	4612.183594
3579.830078	4546.173340
3579.064453	4565.022949
3578.297852	4593.654785
3577.531250	4514.630371
3576.764648	4523.691406
3575.998047	4509.922852
3575.231445	4607.014160
3574.464844	4622.575684
3573.698242	4706.579590
3572.930664	4507.033691
3572.163086	4695.296387
3571.396484	4606.582520
3570.628906	4775.225098
3569.861328	4653.958496
3569.092773	4532.730957
3568.325195	4593.864258
3567.557617	4518.257813
3566.789063	4585.882813
3566.020508	4598.165039
3565.252930	4776.379883
3564.484375	4638.982422
3563.715820	4683.776367
3562.946289	4585.462891
3562.177734	4792.829102
3561.409180	4662.019043
3560.639648	4593.010742
3559.870117	4923.776855
3559.101563	4705.271484
3558.332031	4659.032227
3557.562500	4794.720703
3556.791992	4638.051758
3556.022461	4809.421875
3555.252930	4766.441895
3554.482422	4785.156250
3553.711914	4820.094238
3552.942383	4816.076660
3552.171875	4649.819336
3551.401367	4713.960449
3550.629883	4774.836914
3549.859375	4761.098633
3549.088867	4880.317383
3548.317383	4704.455566
3547.545898	4700.460449
3546.774414	4813.148438
3546.002930	4737.842285
3545.231445	4882.889160
3544.459961	4836.752441
3543.688477	4793.869141
3542.916016	4854.634277
3542.144531	4850.618164
3541.372070	4843.366211
3540.599609	4800.508789
3539.827148	4663.806641
3539.054688	4711.599121
3538.282227	4804.672852
3537.509766	4732.733887
3536.736328	4803.133301
3535.962891	4828.235352
3535.190430	4808.061035
3534.416992	4639.181152
3533.643555	4683.690918
3532.870117	4980.270020
3532.095703	4834.062500
3531.322266	4791.287598
3530.548828	4916.501465
3529.774414	4809.130859
3529.000000	4818.048340
3528.225586	4830.191406
3527.451172	4784.222168
3526.676758	4889.970215
3525.902344	4763.326172
3525.127930	4685.123047
3524.352539	4742.443359
3523.577148	4748.134766
3522.802734	4637.719727
3522.027344	4736.939453
3521.251953	4610.441406
3520.476563	4551.678223
3519.700195	4721.770508
3518.924805	4740.349609
3518.148438	4800.808105
3517.373047	4693.729492
3516.596680	4789.606934
3515.820313	4689.004883
3515.043945	4723.673340
3514.267578	4787.305176
3513.490234	4689.970215
3512.713867	4634.505859
3511.937500	4704.557129
3511.160156	4674.847168
3510.382813	4725.567871
3509.605469	4773.055664
3508.828125	4752.996094
3508.050781	4607.545410
3507.273438	4520.007324
3506.495117	4708.925781
3505.716797	4624.613281
3504.939453	4431.077148
3504.161133	4639.195313
3503.382813	4676.998535
3502.604492	4592.744629
3501.826172	4630.542969
3501.046875	4694.014648
3500.268555	4587.327148
3499.489258	4525.608887
3498.710938	4598.693848
3497.931641	4508.115723
3497.152344	4626.093262
3496.373047	4548.369629
3495.592773	4419.357422
3494.813477	4633.489258
3494.034180	4635.953125
3493.253906	4555.071777
3492.473633	4519.086426
3491.693359	4543.998535
3490.913086	4649.002441
3490.132813	4580.984375
3489.352539	4589.859375
3488.572266	4483.442383
3487.791016	4614.003906
3487.009766	4597.257324
3486.229492	4410.867188
3485.448242	4544.577637
3484.666992	4412.653809
3483.885742	4533.522949
3483.103516	4478.416016
3482.322266	4436.119629
3481.540039	4387.440918
3480.758789	4367.554199
3479.976563	4440.380859
3479.194336	4260.676270
3478.412109	4470.916016
3477.629883	4492.566406
3476.846680	4443.925293
3476.064453	4340.996582
3475.281250	4397.788574
3474.499023	4326.832520
3473.715820	4431.499023
3472.932617	4376.521484
3472.149414	4350.286621
3471.366211	4362.354004
3470.582031	4495.663574
3469.798828	4408.808594
3469.014648	4449.567383
3468.231445	4337.234375
3467.447266	4215.371582
3466.663086	4402.794922
3465.878906	4341.524902
3465.093750	4395.009766
3464.309570	4250.909180
3463.524414	4119.598633
3462.740234	4150.793945
3461.955078	4414.488281
3461.169922	4394.673828
3460.384766	4285.712402
3459.599609	4285.025391
3458.814453	4281.155762
3458.028320	4382.309570
3457.243164	4206.597656
3456.457031	4174.108887
3455.670898	4138.449219
3454.885742	4131.424805
3454.098633	4213.441406
3453.312500	4145.998047
3452.526367	4221.627930
3451.740234	4163.739746
3450.953125	4223.453125
3450.166016	4102.034668
3449.379883	4021.954590
3448.592773	4183.305664
3447.804688	4185.811523
3447.017578	4201.017090
3446.230469	4111.447754
3445.442383	4275.855469
3444.655273	4148.216309
3443.867188	4080.911377
3443.079102	4061.220215
3442.291016	4079.603271
3441.502930	3933.046143
3440.714844	4224.175781
3439.926758	3973.005859
3439.137695	4035.774902
3438.348633	4082.674561
3437.560547	4101.035645
3436.771484	4030.665771
3435.982422	4049.029297
3435.193359	4048.380371
3434.403320	3930.543701
3433.614258	3857.078857
3432.824219	4008.439453
3432.035156	4039.454102
3431.245117	3915.363525
3430.455078	3943.218262
3429.665039	3888.794922
3428.875000	3989.409424
3428.084961	3906.527344
3427.293945	3918.552002
3426.503906	4009.626709
3425.712891	4056.408936
3424.921875	3847.122559
3424.130859	4004.538086
3423.339844	3766.885986
3422.548828	3842.113281
3421.756836	3847.815674
3420.965820	3752.440186
3420.173828	3824.475342
3419.382813	3874.384033
3418.590820	3927.433838
3417.798828	3914.177734
3417.006836	3859.896973
3416.213867	3821.411133
3415.421875	3808.178223
3414.628906	3848.577393
3413.836914	3734.414063
3413.043945	3822.114990
3412.250977	3868.798096
3411.458008	3697.940430
3410.665039	3716.259766
3409.872070	3781.846436
3409.078125	3781.240234
3408.285156	3682.967529
3407.491211	3814.678223
